lambda	Flux	e_Flux
0.1nm	10-2W/m2/nm	10-2W/m2/nm
---------	----------	----------
4750.2080	6.3709e-12	3.2867e-13
4751.4580	6.7698e-12	4.8562e-14
4752.7080	6.6549e-12	3.7833e-14
4753.9580	6.5211e-12	4.0644e-14
4755.2080	6.4076e-12	4.5271e-14
4756.4580	6.6345e-12	3.3287e-14
4757.7080	6.9128e-12	4.3503e-14
4758.9580	6.9158e-12	4.6650e-14
4760.2080	6.7152e-12	4.9136e-14
4761.4580	6.3570e-12	5.2390e-14
4762.7080	6.2423e-12	3.7189e-14
4763.9580	6.2719e-12	4.6433e-14
4765.2080	6.4300e-12	4.4369e-14
4766.4580	6.5798e-12	4.1407e-14
4767.7080	6.7116e-12	4.4860e-14
4768.9580	6.7468e-12	4.6678e-14
4770.2080	6.7151e-12	5.6927e-14
4771.4580	6.5831e-12	4.6656e-14
4772.7080	6.6126e-12	4.5060e-14
4773.9580	6.7343e-12	4.9129e-14
4775.2080	6.8003e-12	5.0504e-14
4776.4580	6.8359e-12	4.3883e-14
4777.7080	6.7889e-12	5.0068e-14
4778.9580	6.6323e-12	5.2158e-14
4780.2080	6.6757e-12	4.6921e-14
4781.4580	6.7143e-12	5.4517e-14
4782.7080	6.5798e-12	5.1853e-14
4783.9580	6.5690e-12	4.9967e-14
4785.2080	6.4118e-12	4.1333e-14
4786.4580	6.3393e-12	4.0864e-14
4787.7080	6.4814e-12	4.8410e-14
4788.9580	6.4959e-12	4.3545e-14
4790.2080	6.5676e-12	4.2389e-14
4791.4580	6.6378e-12	4.2824e-14
4792.7080	6.7447e-12	4.5767e-14
4793.9580	6.8290e-12	4.1175e-14
4795.2080	6.7975e-12	4.2210e-14
4796.4580	6.6957e-12	3.8500e-14
4797.7080	6.5577e-12	4.1815e-14
4798.9580	6.4711e-12	4.5358e-14
4800.2080	6.5226e-12	4.5465e-14
4801.4580	6.6184e-12	4.1917e-14
4802.7080	6.5469e-12	4.4638e-14
4803.9580	6.3094e-12	4.3490e-14
4805.2080	6.2732e-12	4.2787e-14
4806.4580	6.4065e-12	3.5966e-14
4807.7080	6.4227e-12	3.5436e-14
4808.9580	6.3073e-12	3.9806e-14
4810.2080	6.2008e-12	4.0506e-14
4811.4580	6.2642e-12	3.8919e-14
4812.7080	6.4205e-12	3.9026e-14
4813.9580	6.5453e-12	3.7919e-14
4815.2080	6.5726e-12	4.5381e-14
4816.4580	6.5513e-12	4.1351e-14
4817.7080	6.5548e-12	3.9631e-14
4818.9580	6.5527e-12	3.6693e-14
4820.2080	6.4821e-12	4.1651e-14
4821.4580	6.1991e-12	4.4391e-14
4822.7080	5.7168e-12	4.4163e-14
4823.9580	5.7299e-12	2.2691e-14
4825.2080	6.1546e-12	3.0036e-14
4826.4580	6.3083e-12	3.6688e-14
4827.7080	6.1876e-12	3.3893e-14
4828.9580	6.0952e-12	3.1880e-14
4830.2080	6.0807e-12	3.7454e-14
4831.4580	6.0590e-12	3.5015e-14
4832.7080	6.1042e-12	3.3885e-14
4833.9580	6.1039e-12	3.4562e-14
4835.2080	5.9696e-12	3.3881e-14
4836.4580	5.9343e-12	3.3150e-14
4837.7080	5.8970e-12	2.8582e-14
4838.9580	5.7686e-12	3.1270e-14
4840.2080	5.7765e-12	3.3534e-14
4841.4580	5.7795e-12	3.0131e-14
4842.7080	5.6895e-12	2.8936e-14
4843.9580	5.6650e-12	3.6312e-14
4845.2080	5.6006e-12	2.8366e-14
4846.4580	5.3042e-12	2.4512e-14
4847.7080	5.0182e-12	3.0969e-14
4848.9580	5.0413e-12	2.6239e-14
4850.2080	5.0723e-12	2.3744e-14
4851.4580	4.9034e-12	2.2868e-14
4852.7080	4.5757e-12	2.2221e-14
4853.9580	4.0881e-12	2.9516e-14
4855.2080	3.8240e-12	2.2958e-14
4856.4580	3.7679e-12	2.3971e-14
4857.7080	3.4705e-12	2.4897e-14
4858.9580	2.8504e-12	3.0432e-14
4860.2080	2.2795e-12	3.1500e-14
4861.4580	2.4293e-12	1.1104e-14
4862.7080	3.0311e-12	7.6368e-15
4863.9580	3.4902e-12	1.6423e-14
4865.2080	3.8794e-12	1.5774e-14
4866.4580	4.2422e-12	1.2303e-14
4867.7080	4.5355e-12	2.0923e-14
4868.9580	4.6292e-12	2.6436e-14
4870.2080	4.4733e-12	2.5147e-14
4871.4580	4.5014e-12	2.0788e-14
4872.7080	4.8230e-12	2.2302e-14
4873.9580	5.0517e-12	2.3388e-14
4875.2080	5.0657e-12	2.7640e-14
4876.4580	5.1118e-12	2.3146e-14
4877.7080	5.3611e-12	2.0938e-14
4878.9580	5.6614e-12	1.7511e-14
4880.2080	5.7377e-12	2.6676e-14
4881.4580	5.5463e-12	2.7405e-14
4882.7080	5.2868e-12	2.1664e-14
4883.9580	5.3121e-12	1.9207e-14
4885.2080	5.5295e-12	1.8810e-14
4886.4580	5.6631e-12	1.6990e-14
4887.7080	5.7221e-12	1.9977e-14
4888.9580	5.5723e-12	1.6738e-14
4890.2080	5.3092e-12	2.3565e-14
4891.4580	5.5369e-12	2.0230e-14
4892.7080	5.9684e-12	1.9552e-14
4893.9580	6.1668e-12	2.0839e-14
4895.2080	6.2662e-12	2.0442e-14
4896.4580	6.2639e-12	2.2475e-14
4897.7080	6.0875e-12	1.8072e-14
4898.9580	5.6976e-12	2.2159e-14
4900.2080	5.7616e-12	1.8765e-14
4901.4580	6.0018e-12	1.3847e-14
4902.7080	5.9114e-12	1.9812e-14
4903.9580	6.0107e-12	1.9178e-14
4905.2080	6.2889e-12	1.6056e-14
4906.4580	6.3451e-12	1.3979e-14
4907.7080	6.1995e-12	1.3969e-14
4908.9580	5.8920e-12	1.5684e-14
4910.2080	5.7120e-12	1.9493e-14
4911.4580	5.9086e-12	2.1674e-14
4912.7080	6.1276e-12	2.0364e-14
4913.9580	6.2671e-12	1.7385e-14
4915.2080	6.3387e-12	1.9486e-14
4916.4580	6.0733e-12	1.7883e-14
4917.7080	5.5984e-12	2.0756e-14
4918.9580	5.2975e-12	1.8837e-14
4920.2080	5.3527e-12	1.1374e-14
4921.4580	5.5712e-12	1.3494e-14
4922.7080	5.4941e-12	1.5187e-14
4923.9580	5.5792e-12	1.3979e-14
4925.2080	6.0622e-12	1.8126e-14
4926.4580	6.2907e-12	1.9346e-14
4927.7080	6.3518e-12	1.7907e-14
4928.9580	6.3951e-12	1.8185e-14
4930.2080	6.3512e-12	2.2889e-14
4931.4580	6.1518e-12	1.9672e-14
4932.7080	5.6835e-12	1.1354e-14
4933.9580	5.6286e-12	1.4428e-14
4935.2080	5.9475e-12	1.5564e-14
4936.4580	5.9106e-12	1.3177e-14
4937.7080	5.7308e-12	1.9382e-14
4938.9580	5.8938e-12	1.2009e-14
4940.2080	6.2581e-12	2.2290e-14
4941.4580	6.3886e-12	1.5088e-14
4942.7080	6.3745e-12	1.4288e-14
4943.9580	6.2888e-12	2.0275e-14
4945.2080	6.1586e-12	1.5282e-14
4946.4580	6.2178e-12	1.6268e-14
4947.7080	6.3200e-12	2.1197e-14
4948.9580	6.3125e-12	2.0286e-14
4950.2080	6.2844e-12	1.6688e-14
4951.4580	6.1649e-12	1.5650e-14
4952.7080	6.1278e-12	1.3383e-14
4953.9580	6.2500e-12	1.9457e-14
4955.2080	6.0748e-12	1.0216e-14
4956.4580	5.5534e-12	1.5973e-14
4957.7080	5.7326e-12	1.6283e-14
4958.9580	6.3108e-12	2.7288e-14
4960.2080	6.4237e-12	1.5468e-14
4961.4580	6.3780e-12	2.0486e-14
4962.7080	6.4094e-12	1.9913e-14
4963.9580	6.3198e-12	1.5922e-14
4965.2080	6.1569e-12	2.0408e-14
4966.4580	6.1143e-12	1.8961e-14
4967.7080	6.1400e-12	1.9332e-14
4968.9580	6.0901e-12	1.7157e-14
4970.2080	6.0714e-12	1.3588e-14
4971.4580	6.1651e-12	2.0123e-14
4972.7080	6.2788e-12	2.5002e-14
4973.9580	6.3678e-12	1.9525e-14
4975.2080	6.3495e-12	1.8001e-14
4976.4580	6.2678e-12	2.2078e-14
4977.7080	6.1371e-12	2.3333e-14
4978.9580	5.9943e-12	1.9091e-14
4980.2080	5.7967e-12	1.5391e-14
4981.4580	5.3817e-12	1.2265e-14
4982.7080	5.1289e-12	1.7282e-14
4983.9580	5.3629e-12	2.1839e-14
4985.2080	5.8002e-12	2.4290e-14
4986.4580	6.1425e-12	2.4061e-14
4987.7080	6.2061e-12	2.2813e-14
4988.9580	6.0812e-12	1.8952e-14
4990.2080	5.9640e-12	1.8414e-14
4991.4580	5.9396e-12	2.1276e-14
4992.7080	5.9094e-12	2.4485e-14
4993.9580	6.0192e-12	2.8634e-14
4995.2080	6.1841e-12	2.2602e-14
4996.4580	6.1655e-12	2.3872e-14
4997.7080	6.0292e-12	1.9142e-14
4998.9580	5.7987e-12	1.6733e-14
5000.2080	5.5799e-12	2.1396e-14
5001.4580	5.6086e-12	2.1884e-14
5002.7080	5.8413e-12	2.1650e-14
5003.9580	5.7385e-12	2.0030e-14
5005.2080	5.4225e-12	1.9075e-14
5006.4580	5.5720e-12	2.1440e-14
5007.7080	5.9963e-12	3.1144e-14
5008.9580	6.0587e-12	2.3484e-14
5010.2080	5.8300e-12	2.7424e-14
5011.4580	5.6116e-12	2.4663e-14
5012.7080	5.5660e-12	2.3638e-14
5013.9580	5.6718e-12	2.5331e-14
5015.2080	5.7696e-12	2.9043e-14
5016.4580	5.3889e-12	2.3356e-14
5017.7080	5.0405e-12	2.2485e-14
5018.9580	5.4292e-12	2.9459e-14
5020.2080	5.7832e-12	2.8977e-14
5021.4580	5.8115e-12	2.7331e-14
5022.7080	5.9536e-12	3.0851e-14
5023.9580	6.1250e-12	3.4502e-14
5025.2080	6.0374e-12	2.7573e-14
5026.4580	5.8139e-12	2.4935e-14
5027.7080	5.8496e-12	3.1576e-14
5028.9580	6.0283e-12	2.9541e-14
5030.2080	6.0849e-12	3.2964e-14
5031.4580	6.1103e-12	3.5593e-14
5032.7080	6.0900e-12	3.3519e-14
5033.9580	5.7958e-12	2.6039e-14
5035.2080	5.6067e-12	2.5094e-14
5036.4580	5.7951e-12	3.1898e-14
5037.7080	5.8517e-12	2.6052e-14
5038.9580	5.6280e-12	2.7546e-14
5040.2080	5.3368e-12	2.2180e-14
5041.4580	5.4520e-12	2.9098e-14
5042.7080	5.8943e-12	2.8742e-14
5043.9580	6.1008e-12	2.8870e-14
5045.2080	6.1473e-12	3.1918e-14
5046.4580	5.9913e-12	3.1405e-14
5047.7080	5.7020e-12	3.0238e-14
5048.9580	5.5965e-12	3.0677e-14
5050.2080	5.6254e-12	2.9577e-14
5051.4580	5.7236e-12	2.8916e-14
5052.7080	5.9309e-12	2.8905e-14
5053.9580	5.9783e-12	3.5993e-14
5055.2080	5.8620e-12	3.6426e-14
5056.4580	5.9191e-12	3.4773e-14
5057.7080	6.0695e-12	3.4220e-14
5058.9580	6.1335e-12	3.5897e-14
5060.2080	6.1462e-12	3.3021e-14
5061.4580	6.1416e-12	3.6480e-14
5062.7080	6.0417e-12	3.6476e-14
5063.9580	5.7904e-12	3.0747e-14
5065.2080	5.7204e-12	3.3704e-14
5066.4580	5.7883e-12	3.6595e-14
5067.7080	5.7581e-12	3.8675e-14
5068.9580	5.8499e-12	3.4688e-14
5070.2080	5.8656e-12	3.1563e-14
5071.4580	5.7064e-12	3.1459e-14
5072.7080	5.6938e-12	3.3380e-14
5073.9580	5.6320e-12	3.0723e-14
5075.2080	5.6547e-12	3.3598e-14
5076.4580	5.7986e-12	3.5802e-14
5077.7080	5.5785e-12	3.0642e-14
5078.9580	5.1526e-12	3.0451e-14
5080.2080	5.1647e-12	3.0879e-14
5081.4580	5.4395e-12	3.4675e-14
5082.7080	5.5181e-12	3.1611e-14
5083.9580	5.6653e-12	3.4701e-14
5085.2080	5.7586e-12	3.4277e-14
5086.4580	5.5764e-12	3.5409e-14
5087.7080	5.6221e-12	3.4487e-14
5088.9580	5.7850e-12	3.3848e-14
5090.2080	5.8299e-12	3.5987e-14
5091.4580	5.8894e-12	3.6820e-14
5092.7080	5.9132e-12	3.9861e-14
5093.9580	5.9273e-12	3.3493e-14
5095.2080	5.7743e-12	3.3549e-14
5096.4580	5.4758e-12	3.1064e-14
5097.7080	5.2390e-12	3.0640e-14
5098.9580	5.1772e-12	3.3445e-14
5100.2080	5.4103e-12	3.1971e-14
5101.4580	5.6973e-12	3.7998e-14
5102.7080	5.8115e-12	3.8252e-14
5103.9580	5.8076e-12	3.4219e-14
5105.2080	5.7215e-12	3.5497e-14
5106.4580	5.6234e-12	3.9960e-14
5107.7080	5.6013e-12	3.6710e-14
5108.9580	5.6038e-12	3.3152e-14
5110.2080	5.6506e-12	3.9030e-14
5111.4580	5.7964e-12	3.6844e-14
5112.7080	5.8319e-12	3.6866e-14
5113.9580	5.7296e-12	3.6159e-14
5115.2080	5.7150e-12	3.5756e-14
5116.4580	5.8337e-12	3.7863e-14
5117.7080	5.8222e-12	3.5835e-14
5118.9580	5.7232e-12	3.8239e-14
5120.2080	5.6530e-12	3.8094e-14
5121.4580	5.4879e-12	3.7345e-14
5122.7080	5.3036e-12	3.6864e-14
5123.9580	5.2965e-12	3.4209e-14
5125.2080	5.3999e-12	3.8800e-14
5126.4580	5.4558e-12	3.4030e-14
5127.7080	5.3502e-12	3.5617e-14
5128.9580	5.3306e-12	3.5362e-14
5130.2080	5.4536e-12	3.9143e-14
5131.4580	5.4203e-12	4.1994e-14
5132.7080	5.3425e-12	3.5434e-14
5133.9580	5.5380e-12	4.1678e-14
5135.2080	5.5882e-12	3.6775e-14
5136.4580	5.3713e-12	3.2795e-14
5137.7080	5.2235e-12	3.1130e-14
5138.9580	5.2699e-12	3.7177e-14
5140.2080	5.4600e-12	3.9329e-14
5141.4580	5.3416e-12	3.4585e-14
5142.7080	5.3891e-12	3.7297e-14
5143.9580	5.5677e-12	3.3658e-14
5145.2080	5.3974e-12	3.3642e-14
5146.4580	5.2901e-12	3.4731e-14
5147.7080	5.4313e-12	3.7753e-14
5148.9580	5.5609e-12	3.4112e-14
5150.2080	5.5648e-12	3.5851e-14
5151.4580	5.4793e-12	3.0735e-14
5152.7080	5.2458e-12	3.3870e-14
5153.9580	5.1691e-12	3.5531e-14
5155.2080	5.3673e-12	3.9196e-14
5156.4580	5.5688e-12	4.0080e-14
5157.7080	5.6597e-12	3.9021e-14
5158.9580	5.6557e-12	3.7680e-14
5160.2080	5.5054e-12	3.3002e-14
5161.4580	5.3938e-12	3.4918e-14
5162.7080	5.5214e-12	3.9044e-14
5163.9580	5.5291e-12	3.6754e-14
5165.2080	5.1715e-12	3.6716e-14
5166.4580	4.6537e-12	3.4877e-14
5167.7080	4.4303e-12	3.0504e-14
5168.9580	4.8070e-12	3.1539e-14
5170.2080	5.0487e-12	3.3414e-14
5171.4580	4.8799e-12	3.5153e-14
5172.7080	5.1396e-12	3.6651e-14
5173.9580	5.5968e-12	3.9432e-14
5175.2080	5.6572e-12	4.1330e-14
5176.4580	5.6243e-12	3.5531e-14
5177.7080	5.6644e-12	3.7097e-14
5178.9580	5.6471e-12	3.9188e-14
5180.2080	5.6123e-12	3.3986e-14
5181.4580	5.3529e-12	3.5905e-14
5182.7080	4.9005e-12	3.3254e-14
5183.9580	4.9614e-12	3.4453e-14
5185.2080	5.2918e-12	2.9901e-14
5186.4580	5.2902e-12	3.7737e-14
5187.7080	5.1667e-12	3.4725e-14
5188.9580	5.2716e-12	3.7107e-14
5190.2080	5.1444e-12	3.2098e-14
5191.4580	4.8980e-12	3.1274e-14
5192.7080	5.1549e-12	3.7105e-14
5193.9580	5.2057e-12	3.6279e-14
5195.2080	5.0186e-12	3.4411e-14
5196.4580	4.9553e-12	3.4403e-14
5197.7080	5.1060e-12	3.7120e-14
5198.9580	5.2831e-12	3.5603e-14
5200.2080	5.3080e-12	3.7121e-14
5201.4580	5.3473e-12	3.8098e-14
5202.7080	5.2504e-12	3.9223e-14
5203.9580	4.9344e-12	3.3902e-14
5205.2080	4.8312e-12	3.2272e-14
5206.4580	5.0809e-12	3.3935e-14
5207.7080	5.1769e-12	3.8429e-14
5208.9580	5.3531e-12	3.8932e-14
5210.2080	5.4959e-12	3.7934e-14
5211.4580	5.5493e-12	3.6798e-14
5212.7080	5.5751e-12	3.5611e-14
5213.9580	5.3065e-12	3.5340e-14
5215.2080	5.0424e-12	3.3585e-14
5216.4580	5.0849e-12	3.3736e-14
5217.7080	5.3409e-12	3.6635e-14
5218.9580	5.5424e-12	3.8282e-14
5220.2080	5.6214e-12	3.7194e-14
5221.4580	5.6546e-12	4.1724e-14
5222.7080	5.6210e-12	3.6409e-14
5223.9580	5.4153e-12	3.4972e-14
5225.2080	4.7460e-12	3.7551e-14
5226.4580	4.4523e-12	3.1856e-14
5227.7080	4.9687e-12	2.6766e-14
5228.9580	5.3667e-12	3.2337e-14
5230.2080	5.4222e-12	3.1728e-14
5231.4580	5.1725e-12	3.3835e-14
5232.7080	4.8545e-12	3.5910e-14
5233.9580	4.8548e-12	3.5867e-14
5235.2080	5.0659e-12	3.1850e-14
5236.4580	5.2348e-12	3.1477e-14
5237.7080	5.4144e-12	3.2899e-14
5238.9580	5.5891e-12	3.5112e-14
5240.2080	5.5740e-12	3.8252e-14
5241.4580	5.4477e-12	3.7779e-14
5242.7080	5.4209e-12	3.4683e-14
5243.9580	5.5429e-12	3.5033e-14
5245.2080	5.5484e-12	3.6871e-14
5246.4580	5.4660e-12	3.8508e-14
5247.7080	5.3990e-12	3.7308e-14
5248.9580	5.3023e-12	3.4098e-14
5250.2080	5.3308e-12	3.2177e-14
5251.4580	5.4575e-12	3.4815e-14
5252.7080	5.4166e-12	3.7511e-14
5253.9580	5.2538e-12	3.8233e-14
5255.2080	5.2787e-12	3.6082e-14
5256.4580	5.4498e-12	3.1882e-14
5257.7080	5.5392e-12	3.3851e-14
5258.9580	5.5018e-12	3.4266e-14
5260.2080	5.3605e-12	3.3432e-14
5261.4580	5.1568e-12	3.6391e-14
5262.7080	4.8957e-12	3.3539e-14
5263.9580	4.6706e-12	2.9304e-14
5265.2080	4.6833e-12	2.8512e-14
5266.4580	4.9604e-12	3.0729e-14
5267.7080	4.9270e-12	3.1368e-14
5268.9580	4.5854e-12	3.3113e-14
5270.2080	4.8044e-12	2.7719e-14
5271.4580	5.1042e-12	3.2402e-14
5272.7080	4.9980e-12	3.2350e-14
5273.9580	4.7232e-12	3.2434e-14
5275.2080	4.6853e-12	3.6827e-14
5276.4580	5.1484e-12	2.8802e-14
5277.7080	5.3483e-12	3.4060e-14
5278.9580	5.1995e-12	3.4303e-14
5280.2080	5.1451e-12	3.4607e-14
5281.4580	5.1131e-12	3.2222e-14
5282.7080	4.8828e-12	3.6654e-14
5283.9580	4.9908e-12	3.4717e-14
5285.2080	5.4210e-12	2.8644e-14
5286.4580	5.5606e-12	3.2604e-14
5287.7080	5.5348e-12	3.4573e-14
5288.9580	5.5218e-12	3.2297e-14
5290.2080	5.5034e-12	3.6300e-14
5291.4580	5.4278e-12	3.7432e-14
5292.7080	5.3724e-12	3.1670e-14
5293.9580	5.4150e-12	3.4458e-14
5295.2080	5.4056e-12	3.1648e-14
5296.4580	5.2353e-12	3.4407e-14
5297.7080	5.2124e-12	3.3477e-14
5298.9580	5.3706e-12	2.9208e-14
5300.2080	5.3510e-12	3.8539e-14
5301.4580	5.2079e-12	3.2291e-14
5302.7080	5.2928e-12	2.9298e-14
5303.9580	5.3957e-12	3.3852e-14
5305.2080	5.3189e-12	3.5332e-14
5306.4580	5.2653e-12	3.3519e-14
5307.7080	5.3231e-12	3.3764e-14
5308.9580	5.4024e-12	3.6166e-14
5310.2080	5.4288e-12	3.4943e-14
5311.4580	5.3769e-12	3.5019e-14
5312.7080	5.2998e-12	3.5088e-14
5313.9580	5.2243e-12	3.5886e-14
5315.2080	4.9052e-12	3.6101e-14
5316.4580	4.8557e-12	2.7120e-14
5317.7080	5.2436e-12	3.0696e-14
5318.9580	5.4161e-12	3.0998e-14
5320.2080	5.4338e-12	3.0534e-14
5321.4580	5.3948e-12	3.6921e-14
5322.7080	5.1632e-12	3.7274e-14
5323.9580	4.9618e-12	3.1294e-14
5325.2080	5.0364e-12	3.2941e-14
5326.4580	4.8596e-12	3.0486e-14
5327.7080	4.6043e-12	2.3484e-14
5328.9580	4.9407e-12	3.0444e-14
5330.2080	5.3417e-12	3.1388e-14
5331.4580	5.3943e-12	3.6484e-14
5332.7080	5.3269e-12	3.6384e-14
5333.9580	5.2340e-12	3.2975e-14
5335.2080	5.1281e-12	3.1755e-14
5336.4580	5.0400e-12	3.1571e-14
5337.7080	5.0288e-12	3.4242e-14
5338.9580	4.9533e-12	3.2304e-14
5340.2080	4.9845e-12	3.3860e-14
5341.4580	5.2430e-12	3.3819e-14
5342.7080	5.3727e-12	3.0669e-14
5343.9580	5.3333e-12	3.4802e-14
5345.2080	5.2276e-12	3.5397e-14
5346.4580	5.2530e-12	3.3997e-14
5347.7080	5.2745e-12	3.3047e-14
5348.9580	5.2250e-12	3.7891e-14
5350.2080	5.3133e-12	3.4032e-14
5351.4580	5.3526e-12	3.4157e-14
5352.7080	5.2950e-12	3.4637e-14
5353.9580	5.4101e-12	3.3961e-14
5355.2080	5.5091e-12	3.2790e-14
5356.4580	5.5162e-12	3.4722e-14
5357.7080	5.5027e-12	3.6676e-14
5358.9580	5.4763e-12	3.4891e-14
5360.2080	5.3658e-12	3.5422e-14
5361.4580	5.0718e-12	4.0265e-14
5362.7080	4.9576e-12	3.0813e-14
5363.9580	5.0071e-12	3.3943e-14
5365.2080	5.0722e-12	3.0397e-14
5366.4580	5.0921e-12	3.1424e-14
5367.7080	5.0481e-12	3.7619e-14
5368.9580	4.8786e-12	3.5335e-14
5370.2080	4.7156e-12	3.3842e-14
5371.4580	4.9515e-12	2.9850e-14
5372.7080	5.2687e-12	2.8766e-14
5373.9580	5.3781e-12	3.4403e-14
5375.2080	5.3795e-12	3.3038e-14
5376.4580	5.3488e-12	3.6892e-14
5377.7080	5.3306e-12	3.5543e-14
5378.9580	5.2287e-12	3.8666e-14
5380.2080	5.1239e-12	3.3716e-14
5381.4580	5.0440e-12	3.2320e-14
5382.7080	5.0429e-12	3.1785e-14
5383.9580	5.2492e-12	2.8365e-14
5385.2080	5.3678e-12	3.6208e-14
5386.4580	5.3491e-12	3.7265e-14
5387.7080	5.3073e-12	3.3411e-14
5388.9580	5.2266e-12	3.5147e-14
5390.2080	5.1887e-12	3.1710e-14
5391.4580	5.1211e-12	3.7521e-14
5392.7080	5.1228e-12	3.4878e-14
5393.9580	5.2261e-12	3.4843e-14
5395.2080	5.1025e-12	3.5671e-14
5396.4580	4.9136e-12	3.2482e-14
5397.7080	5.0402e-12	3.0896e-14
5398.9580	5.1422e-12	3.4309e-14
5400.2080	5.1089e-12	3.3532e-14
5401.4580	5.0400e-12	3.4433e-14
5402.7080	4.8193e-12	3.1681e-14
5403.9580	4.6658e-12	2.7618e-14
5405.2080	4.7829e-12	3.4234e-14
5406.4580	5.0075e-12	3.7411e-14
5407.7080	5.0544e-12	3.3267e-14
5408.9580	4.8988e-12	3.5958e-14
5410.2080	4.8965e-12	3.2758e-14
5411.4580	5.1172e-12	3.7516e-14
5412.7080	5.0969e-12	3.8235e-14
5413.9580	4.8988e-12	3.6333e-14
5415.2080	5.0262e-12	3.7207e-14
5416.4580	5.2522e-12	3.6231e-14
5417.7080	5.2437e-12	3.6985e-14
5418.9580	5.1938e-12	3.6402e-14
5420.2080	5.1739e-12	3.4066e-14
5421.4580	5.1603e-12	4.0560e-14
5422.7080	4.9262e-12	3.9676e-14
5423.9580	4.7403e-12	4.0159e-14
5425.2080	5.0184e-12	3.4033e-14
5426.4580	5.2387e-12	3.2712e-14
5427.7080	5.0706e-12	4.0236e-14
5428.9580	4.8718e-12	4.3662e-14
5430.2080	5.0403e-12	3.8407e-14
5431.4580	5.1287e-12	3.6140e-14
5432.7080	4.9502e-12	4.0002e-14
5433.9580	4.9267e-12	3.6344e-14
5435.2080	5.1082e-12	3.6168e-14
5436.4580	5.2844e-12	3.0850e-14
5437.7080	5.3422e-12	3.9705e-14
5438.9580	5.3383e-12	3.5106e-14
5440.2080	5.3272e-12	3.7475e-14
5441.4580	5.3206e-12	3.8328e-14
5442.7080	5.2483e-12	3.4704e-14
5443.9580	5.0262e-12	3.9844e-14
5445.2080	4.7740e-12	4.3367e-14
5446.4580	4.8214e-12	3.7377e-14
5447.7080	5.1384e-12	3.2189e-14
5448.9580	5.3046e-12	3.9426e-14
5450.2080	5.3123e-12	3.6816e-14
5451.4580	5.2943e-12	3.6976e-14
5452.7080	5.2180e-12	3.8738e-14
5453.9580	4.9001e-12	4.9846e-14
5455.2080	4.8073e-12	3.4949e-14
5456.4580	5.1235e-12	3.1741e-14
5457.7080	5.2965e-12	4.1206e-14
5458.9580	5.3060e-12	3.9975e-14
5460.2080	5.2377e-12	4.2990e-14
5461.4580	4.9755e-12	4.7070e-14
5462.7080	4.8697e-12	3.2072e-14
5463.9580	5.0600e-12	3.5519e-14
5465.2080	5.1026e-12	4.3974e-14
5466.4580	5.0984e-12	3.6705e-14
5467.7080	5.1996e-12	3.7603e-14
5468.9580	5.2514e-12	3.9399e-14
5470.2080	5.2347e-12	3.8373e-14
5471.4580	5.1147e-12	4.7706e-14
5472.7080	5.0056e-12	3.7405e-14
5473.9580	4.9727e-12	4.1330e-14
5475.2080	4.6474e-12	4.9229e-14
5476.4580	4.4808e-12	2.9465e-14
5477.7080	4.8116e-12	3.6209e-14
5478.9580	5.0201e-12	4.2878e-14
5480.2080	4.9938e-12	3.8897e-14
5481.4580	5.0496e-12	3.4983e-14
5482.7080	5.1702e-12	3.9657e-14
5483.9580	5.2206e-12	4.0090e-14
5485.2080	5.1670e-12	4.4827e-14
5486.4580	5.0353e-12	4.0016e-14
5487.7080	5.0444e-12	4.0544e-14
5488.9580	5.1465e-12	4.0699e-14
5490.2080	5.1736e-12	4.2762e-14
5491.4580	5.1418e-12	3.7851e-14
5492.7080	5.0980e-12	4.1777e-14
5493.9580	5.1185e-12	4.1878e-14
5495.2080	5.0841e-12	4.1017e-14
5496.4580	4.9337e-12	4.1933e-14
5497.7080	4.9960e-12	4.2447e-14
5498.9580	5.1384e-12	4.1140e-14
5500.2080	4.9955e-12	4.0463e-14
5501.4580	4.8330e-12	4.0235e-14
5502.7080	4.9187e-12	4.0963e-14
5503.9580	5.0390e-12	4.1444e-14
5505.2080	4.9472e-12	4.2271e-14
5506.4580	4.8794e-12	4.0401e-14
5507.7080	4.8905e-12	3.8652e-14
5508.9580	4.8173e-12	4.1926e-14
5510.2080	4.8633e-12	4.2080e-14
5511.4580	4.9941e-12	4.2339e-14
5512.7080	5.0845e-12	4.1826e-14
5513.9580	5.1535e-12	4.4559e-14
5515.2080	5.1610e-12	4.0338e-14
5516.4580	5.1625e-12	4.3363e-14
5517.7080	5.1538e-12	4.3017e-14
5518.9580	5.1226e-12	4.2502e-14
5520.2080	5.0743e-12	3.9174e-14
5521.4580	5.0678e-12	4.2490e-14
5522.7080	5.1029e-12	4.0570e-14
5523.9580	5.0391e-12	4.0166e-14
5525.2080	4.9917e-12	4.4296e-14
5526.4580	4.8941e-12	4.2023e-14
5527.7080	4.7725e-12	4.6787e-14
5528.9580	4.8915e-12	3.5132e-14
5530.2080	5.0559e-12	3.9533e-14
5531.4580	5.0777e-12	3.9858e-14
5532.7080	4.9278e-12	4.5419e-14
5533.9580	4.6768e-12	4.8028e-14
5535.2080	4.7824e-12	3.5925e-14
5536.4580	5.0400e-12	3.8649e-14
5537.7080	5.0857e-12	4.3397e-14
5538.9580	5.0905e-12	4.0982e-14
5540.2080	5.0883e-12	4.0679e-14
5541.4580	5.0151e-12	4.5282e-14
5542.7080	4.8686e-12	4.8716e-14
5543.9580	4.8029e-12	3.9093e-14
5545.2080	4.8527e-12	3.9674e-14
5546.4580	4.9603e-12	3.9036e-14
5547.7080	5.0450e-12	4.3258e-14
5548.9580	5.0632e-12	3.9306e-14
5550.2080	5.0732e-12	4.0683e-14
5551.4580	5.0552e-12	4.8106e-14
5552.7080	4.9779e-12	4.7821e-14
5553.9580	4.9184e-12	3.9686e-14
5555.2080	4.9640e-12	3.7777e-14
5556.4580	4.9984e-12	4.2636e-14
5557.7080	4.9783e-12	4.0365e-14
5558.9580	4.9641e-12	4.1507e-14
5560.2080	4.9503e-12	3.9978e-14
5561.4580	4.9009e-12	4.4487e-14
5562.7080	4.8664e-12	4.3364e-14
5563.9580	4.8604e-12	4.0156e-14
5565.2080	4.8458e-12	4.1305e-14
5566.4580	4.8679e-12	4.2517e-14
5567.7080	4.8268e-12	4.3799e-14
5568.9580	4.7702e-12	3.9358e-14
5570.2080	4.8275e-12	4.3121e-14
5571.4580	4.7518e-12	3.8915e-14
5572.7080	4.7343e-12	3.5172e-14
5573.9580	4.8605e-12	4.6486e-14
5575.2080	4.8425e-12	3.9006e-14
5576.4580	4.8629e-12	4.1016e-14
5577.7080	4.9219e-12	4.1112e-14
5578.9580	4.9462e-12	4.3995e-14
5580.2080	4.9329e-12	4.2543e-14
5581.4580	4.9108e-12	4.2559e-14
5582.7080	4.9426e-12	4.3708e-14
5583.9580	4.9183e-12	4.1707e-14
5585.2080	4.6835e-12	3.8397e-14
5586.4580	4.4780e-12	3.6239e-14
5587.7080	4.5091e-12	3.9494e-14
5588.9580	4.6532e-12	4.1140e-14
5590.2080	4.7675e-12	3.9397e-14
5591.4580	4.7650e-12	4.2346e-14
5592.7080	4.6856e-12	3.8703e-14
5593.9580	4.6780e-12	3.8032e-14
5595.2080	4.8264e-12	4.2450e-14
5596.4580	4.8207e-12	3.7645e-14
5597.7080	4.6954e-12	4.1030e-14
5598.9580	4.7146e-12	4.3192e-14
5600.2080	4.7079e-12	3.6906e-14
5601.4580	4.6116e-12	4.2726e-14
5602.7080	4.6728e-12	4.2547e-14
5603.9580	4.8587e-12	4.1819e-14
5605.2080	4.9277e-12	4.2187e-14
5606.4580	4.9209e-12	4.4101e-14
5607.7080	4.9097e-12	4.0458e-14
5608.9580	4.8983e-12	3.7653e-14
5610.2080	4.9028e-12	4.2903e-14
5611.4580	4.9136e-12	4.5292e-14
5612.7080	4.8321e-12	3.8417e-14
5613.9580	4.5393e-12	4.3921e-14
5615.2080	4.4517e-12	4.5589e-14
5616.4580	4.6926e-12	3.5521e-14
5617.7080	4.8098e-12	3.8149e-14
5618.9580	4.8030e-12	4.2088e-14
5620.2080	4.8175e-12	4.0647e-14
5621.4580	4.8325e-12	3.7103e-14
5622.7080	4.7020e-12	4.0583e-14
5623.9580	4.5647e-12	3.8111e-14
5625.2080	4.6534e-12	3.4994e-14
5626.4580	4.7587e-12	3.8187e-14
5627.7080	4.8069e-12	3.9911e-14
5628.9580	4.8609e-12	3.7167e-14
5630.2080	4.8705e-12	4.3702e-14
5631.4580	4.8405e-12	4.2341e-14
5632.7080	4.7738e-12	3.9777e-14
5633.9580	4.7585e-12	3.6375e-14
5635.2080	4.7437e-12	3.8840e-14
5636.4580	4.6458e-12	4.1153e-14
5637.7080	4.6543e-12	3.6593e-14
5638.9580	4.7344e-12	3.7338e-14
5640.2080	4.7156e-12	4.0126e-14
5641.4580	4.7001e-12	3.8735e-14
5642.7080	4.7339e-12	3.5879e-14
5643.9580	4.7515e-12	3.7855e-14
5645.2080	4.7860e-12	3.4569e-14
5646.4580	4.8132e-12	3.8142e-14
5647.7080	4.7869e-12	4.0539e-14
5648.9580	4.7260e-12	3.8656e-14
5650.2080	4.7278e-12	4.1538e-14
5651.4580	4.7649e-12	3.9409e-14
5652.7080	4.7190e-12	3.9932e-14
5653.9580	4.6051e-12	3.9354e-14
5655.2080	4.6201e-12	3.3733e-14
5656.4580	4.5974e-12	3.9947e-14
5657.7080	4.4590e-12	3.4948e-14
5658.9580	4.5448e-12	2.9301e-14
5660.2080	4.6162e-12	4.5535e-14
5661.4580	4.3958e-12	4.0280e-14
5662.7080	4.3643e-12	3.0524e-14
5663.9580	4.6156e-12	3.8278e-14
5665.2080	4.7159e-12	4.0621e-14
5666.4580	4.7020e-12	3.8847e-14
5667.7080	4.6954e-12	3.9790e-14
5668.9580	4.7068e-12	3.6697e-14
5670.2080	4.7407e-12	3.6671e-14
5671.4580	4.7727e-12	3.5870e-14
5672.7080	4.7767e-12	3.6045e-14
5673.9580	4.7210e-12	3.6348e-14
5675.2080	4.6998e-12	3.5077e-14
5676.4580	4.7223e-12	3.9276e-14
5677.7080	4.6994e-12	3.8659e-14
5678.9580	4.6979e-12	3.8970e-14
5680.2080	4.6471e-12	3.9497e-14
5681.4580	4.5044e-12	3.3270e-14
5682.7080	4.5202e-12	3.3876e-14
5683.9580	4.6220e-12	3.9223e-14
5685.2080	4.5844e-12	3.9756e-14
5686.4580	4.4823e-12	3.1673e-14
5687.7080	4.4767e-12	3.4336e-14
5688.9580	4.6008e-12	3.9206e-14
5690.2080	4.6840e-12	3.8342e-14
5691.4580	4.7025e-12	3.7940e-14
5692.7080	4.6799e-12	3.4738e-14
5693.9580	4.6458e-12	3.6822e-14
5695.2080	4.6672e-12	3.9759e-14
5696.4580	4.7001e-12	3.6696e-14
5697.7080	4.6948e-12	3.3501e-14
5698.9580	4.6602e-12	3.5350e-14
5700.2080	4.6078e-12	3.5169e-14
5701.4580	4.6244e-12	3.6786e-14
5702.7080	4.6741e-12	3.9537e-14
5703.9580	4.6182e-12	3.2939e-14
5705.2080	4.5150e-12	3.6508e-14
5706.4580	4.4968e-12	3.6029e-14
5707.7080	4.4365e-12	3.3080e-14
5708.9580	4.4099e-12	3.4901e-14
5710.2080	4.4792e-12	3.1616e-14
5711.4580	4.5471e-12	3.7148e-14
5712.7080	4.6221e-12	3.1966e-14
5713.9580	4.6063e-12	3.7858e-14
5715.2080	4.6174e-12	3.4943e-14
5716.4580	4.6404e-12	3.3114e-14
5717.7080	4.6391e-12	2.8850e-14
5718.9580	4.6816e-12	3.1933e-14
5720.2080	4.6973e-12	3.4354e-14
5721.4580	4.6973e-12	3.5623e-14
5722.7080	4.6951e-12	3.4628e-14
5723.9580	4.6916e-12	3.2625e-14
5725.2080	4.6714e-12	3.2698e-14
5726.4580	4.6549e-12	3.2591e-14
5727.7080	4.6369e-12	3.4194e-14
5728.9580	4.6404e-12	3.3029e-14
5730.2080	4.6339e-12	3.3961e-14
5731.4580	4.6091e-12	3.6043e-14
5732.7080	4.6369e-12	3.2115e-14
5733.9580	4.6750e-12	3.0463e-14
5735.2080	4.6794e-12	3.2998e-14
5736.4580	4.6763e-12	3.2299e-14
5737.7080	4.6659e-12	3.2175e-14
5738.9580	4.6558e-12	3.3400e-14
5740.2080	4.6379e-12	3.3748e-14
5741.4580	4.6256e-12	3.5321e-14
5742.7080	4.6393e-12	3.2204e-14
5743.9580	4.6549e-12	3.0911e-14
5745.2080	4.6348e-12	3.2044e-14
5746.4580	4.5632e-12	3.3772e-14
5747.7080	4.5512e-12	2.9621e-14
5748.9580	4.6042e-12	3.4647e-14
5750.2080	4.5921e-12	3.3395e-14
5751.4580	4.4963e-12	3.1356e-14
5752.7080	4.4337e-12	3.3539e-14
5753.9580	4.4902e-12	2.5285e-14
5755.2080	4.5802e-12	3.0900e-14
5756.4580	4.6182e-12	3.3251e-14
5757.7080	4.6215e-12	3.2728e-14
5758.9580	4.5863e-12	3.1324e-14
5760.2080	4.5303e-12	3.0507e-14
5761.4580	4.4521e-12	3.4349e-14
5762.7080	4.4647e-12	2.8544e-14
5763.9580	4.5824e-12	2.7168e-14
5765.2080	4.6309e-12	3.1343e-14
5766.4580	4.6205e-12	3.1133e-14
5767.7080	4.5914e-12	3.0459e-14
5768.9580	4.5766e-12	3.2757e-14
5770.2080	4.5691e-12	3.0440e-14
5771.4580	4.5510e-12	2.8871e-14
5772.7080	4.5510e-12	2.9713e-14
5773.9580	4.5424e-12	2.8336e-14
5775.2080	4.5578e-12	2.6836e-14
5776.4580	4.5902e-12	2.7541e-14
5777.7080	4.5753e-12	2.9322e-14
5778.9580	4.5020e-12	2.9041e-14
5780.2080	4.4235e-12	2.5931e-14
5781.4580	4.4213e-12	2.9988e-14
5782.7080	4.4492e-12	3.0316e-14
5783.9580	4.4484e-12	2.7165e-14
5785.2080	4.4820e-12	2.8180e-14
5786.4580	4.5213e-12	3.0037e-14
5787.7080	4.5291e-12	3.0280e-14
5788.9580	4.5105e-12	3.2383e-14
5790.2080	4.4692e-12	3.0111e-14
5791.4580	4.4696e-12	2.7686e-14
5792.7080	4.4872e-12	2.7757e-14
5793.9580	4.5040e-12	3.1541e-14
5795.2080	4.5026e-12	2.7723e-14
5796.4580	4.4535e-12	2.4846e-14
5797.7080	4.4551e-12	2.9364e-14
5798.9580	4.4975e-12	2.8362e-14
5800.2080	4.5172e-12	2.7834e-14
5801.4580	4.5193e-12	2.6890e-14
5802.7080	4.4732e-12	2.6855e-14
5803.9580	4.4029e-12	2.5159e-14
5805.2080	4.3762e-12	2.4900e-14
5806.4580	4.4282e-12	2.7142e-14
5807.7080	4.4648e-12	2.3259e-14
5808.9580	4.4693e-12	2.6349e-14
5810.2080	4.4763e-12	2.6146e-14
5811.4580	4.4567e-12	2.6942e-14
5812.7080	4.4233e-12	2.7111e-14
5813.9580	4.4110e-12	2.4984e-14
5815.2080	4.3873e-12	2.5546e-14
5816.4580	4.4117e-12	2.6707e-14
5817.7080	4.4635e-12	2.1701e-14
5818.9580	4.4653e-12	2.2646e-14
5820.2080	4.4557e-12	2.4213e-14
5821.4580	4.4389e-12	2.3358e-14
5822.7080	4.4235e-12	2.4836e-14
5823.9580	4.4353e-12	2.4366e-14
5825.2080	4.4349e-12	2.5359e-14
5826.4580	4.4419e-12	2.5517e-14
5827.7080	4.4473e-12	2.6068e-14
5828.9580	4.4357e-12	2.6163e-14
5830.2080	4.4144e-12	2.4998e-14
5831.4580	4.4163e-12	2.4103e-14
5832.7080	4.4296e-12	2.1599e-14
5833.9580	4.4053e-12	2.2492e-14
5835.2080	4.4013e-12	2.3451e-14
5836.4580	4.4217e-12	2.0214e-14
5837.7080	4.4240e-12	1.9914e-14
5838.9580	4.4319e-12	2.0903e-14
5840.2080	4.4314e-12	2.0652e-14
5841.4580	4.4242e-12	2.1647e-14
5842.7080	4.4190e-12	2.3330e-14
5843.9580	4.4047e-12	2.2596e-14
5845.2080	4.3985e-12	2.0616e-14
5846.4580	4.3999e-12	1.9351e-14
5847.7080	4.4016e-12	2.1477e-14
5848.9580	4.4064e-12	2.0377e-14
5850.2080	4.3771e-12	2.2689e-14
5851.4580	4.2402e-12	2.1556e-14
5852.7080	4.0755e-12	2.3868e-14
5853.9580	4.1675e-12	1.9379e-14
5855.2080	4.2741e-12	1.7480e-14
5856.4580	4.1848e-12	2.3885e-14
5857.7080	4.1845e-12	2.0710e-14
5858.9580	4.2717e-12	1.9748e-14
5860.2080	4.2975e-12	2.0868e-14
5861.4580	4.2682e-12	2.2658e-14
5862.7080	4.3070e-12	1.6396e-14
5863.9580	4.3761e-12	2.0263e-14
5865.2080	4.3928e-12	2.0395e-14
5866.4580	4.3867e-12	2.1727e-14
5867.7080	4.3839e-12	2.1586e-14
5868.9580	4.3854e-12	1.8609e-14
5870.2080	4.3790e-12	2.1625e-14
5871.4580	4.3729e-12	1.8547e-14
5872.7080	4.3717e-12	1.8563e-14
5873.9580	4.3780e-12	2.1906e-14
5875.2080	4.3815e-12	2.0689e-14
5876.4580	4.3697e-12	1.9173e-14
5877.7080	4.3613e-12	1.8782e-14
5878.9580	4.3553e-12	1.8977e-14
5880.2080	4.3502e-12	1.7726e-14
5881.4580	4.3392e-12	1.7464e-14
5882.7080	4.3027e-12	1.6247e-14
5883.9580	4.3071e-12	1.4461e-14
5885.2080	4.3426e-12	1.8167e-14
5886.4580	4.3402e-12	1.9614e-14
5887.7080	4.0986e-12	2.1998e-14
5888.9580	3.6698e-12	1.9211e-14
5890.2080	3.7924e-12	1.3627e-14
5891.4580	4.1551e-12	1.9793e-14
5892.7080	4.2154e-12	1.5808e-14
5893.9580	3.9843e-12	1.6347e-14
5895.2080	3.7136e-12	1.1587e-14
5896.4580	3.9591e-12	1.7380e-14
5897.7080	4.2709e-12	1.9215e-14
5898.9580	4.3150e-12	1.3782e-14
5900.2080	4.3220e-12	1.8503e-14
5901.4580	4.3085e-12	1.8108e-14
5902.7080	4.3060e-12	1.8133e-14
5903.9580	4.2894e-12	1.3906e-14
5905.2080	4.2672e-12	1.5292e-14
5906.4580	4.2997e-12	1.7839e-14
5907.7080	4.3310e-12	2.0353e-14
5908.9580	4.3268e-12	1.9634e-14
5910.2080	4.3306e-12	1.7606e-14
5911.4580	4.3038e-12	2.0808e-14
5912.7080	4.1859e-12	1.6044e-14
5913.9580	4.1622e-12	1.5881e-14
5915.2080	4.2638e-12	1.5789e-14
5916.4580	4.3052e-12	1.6206e-14
5917.7080	4.3324e-12	1.9672e-14
5918.9580	4.3273e-12	1.6108e-14
5920.2080	4.3125e-12	1.3764e-14
5921.4580	4.3056e-12	1.1803e-14
5922.7080	4.3041e-12	1.3731e-14
5923.9580	4.3073e-12	1.7449e-14
5925.2080	4.3005e-12	1.2044e-14
5926.4580	4.2639e-12	8.6587e-15
5927.7080	4.2009e-12	1.4732e-14
5928.9580	4.1176e-12	1.3085e-14
5930.2080	4.1612e-12	1.6793e-14
5931.4580	4.2577e-12	1.4165e-14
5932.7080	4.2472e-12	9.8043e-15
5933.9580	4.2215e-12	1.2800e-14
5935.2080	4.2506e-12	1.3357e-14
5936.4580	4.2852e-12	1.4940e-14
5937.7080	4.2929e-12	1.5478e-14
5938.9580	4.2797e-12	1.4263e-14
5940.2080	4.2693e-12	1.6279e-14
5941.4580	4.2586e-12	1.5738e-14
5942.7080	4.2649e-12	1.0010e-14
5943.9580	4.2735e-12	1.6103e-14
5945.2080	4.2677e-12	1.4875e-14
5946.4580	4.2069e-12	1.1694e-14
5947.7080	4.1401e-12	8.7885e-15
5948.9580	4.1790e-12	1.1447e-14
5950.2080	4.2095e-12	1.1497e-14
5951.4580	4.1510e-12	1.3752e-14
5952.7080	4.1687e-12	1.6320e-14
5953.9580	4.2191e-12	1.4964e-14
5955.2080	4.2001e-12	1.0663e-14
5956.4580	4.1681e-12	1.4545e-14
5957.7080	4.1792e-12	1.5157e-14
5958.9580	4.1977e-12	1.1684e-14
5960.2080	4.1904e-12	1.1846e-14
5961.4580	4.1971e-12	1.6159e-14
5962.7080	4.2125e-12	1.4852e-14
5963.9580	4.2171e-12	1.4423e-14
5965.2080	4.2056e-12	1.6511e-14
5966.4580	4.2064e-12	1.5195e-14
5967.7080	4.2046e-12	1.3523e-14
5968.9580	4.2085e-12	1.2273e-14
5970.2080	4.2210e-12	7.5231e-15
5971.4580	4.2197e-12	1.4016e-14
5972.7080	4.2046e-12	1.0252e-14
5973.9580	4.1686e-12	1.0543e-14
5975.2080	4.1187e-12	1.1186e-14
5976.4580	4.1085e-12	1.4650e-14
5977.7080	4.1104e-12	1.5114e-14
5978.9580	4.1414e-12	1.1294e-14
5980.2080	4.1843e-12	1.3113e-14
5981.4580	4.1462e-12	1.6129e-14
5982.7080	4.0415e-12	1.4022e-14
5983.9580	4.0091e-12	1.3766e-14
5985.2080	4.0649e-12	1.5252e-14
5986.4580	4.0886e-12	1.5179e-14
5987.7080	4.1226e-12	1.2554e-14
5988.9580	4.1157e-12	1.3965e-14
5990.2080	4.0338e-12	1.4678e-14
5991.4580	4.0649e-12	1.2107e-14
5992.7080	4.1593e-12	1.1313e-14
5993.9580	4.1714e-12	1.5716e-14
5995.2080	4.1348e-12	1.1572e-14
5996.4580	4.0921e-12	1.5897e-14
5997.7080	4.1089e-12	1.4101e-14
5998.9580	4.1502e-12	1.1644e-14
6000.2080	4.1458e-12	1.2089e-14
6001.4580	4.1024e-12	1.3028e-14
6002.7080	4.0963e-12	7.2750e-15
6003.9580	4.1400e-12	6.9260e-15
6005.2080	4.1265e-12	1.1943e-14
6006.4580	4.0470e-12	1.3348e-14
6007.7080	4.0067e-12	1.5754e-14
6008.9580	4.0826e-12	1.5293e-14
6010.2080	4.1300e-12	1.7143e-14
6011.4580	4.0918e-12	1.2798e-14
6012.7080	4.0635e-12	1.5915e-14
6013.9580	4.0861e-12	1.6190e-14
6015.2080	4.0787e-12	1.5401e-14
6016.4580	4.0744e-12	1.3073e-14
6017.7080	4.0728e-12	1.2603e-14
6018.9580	3.9853e-12	1.3098e-14
6020.2080	3.9626e-12	1.4415e-14
6021.4580	4.0014e-12	1.3604e-14
6022.7080	3.9703e-12	1.0439e-14
6023.9580	3.9948e-12	1.4786e-14
6025.2080	4.0637e-12	1.4015e-14
6026.4580	4.0612e-12	1.3958e-14
6027.7080	4.0747e-12	1.1900e-14
6028.9580	4.1019e-12	1.3973e-14
6030.2080	4.1147e-12	1.2761e-14
6031.4580	4.1218e-12	1.4772e-14
6032.7080	4.1234e-12	1.6863e-14
6033.9580	4.1197e-12	1.7916e-14
6035.2080	4.1250e-12	1.3294e-14
6036.4580	4.1266e-12	1.2613e-14
6037.7080	4.1249e-12	1.5718e-14
6038.9580	4.1119e-12	1.5625e-14
6040.2080	4.0672e-12	1.5494e-14
6041.4580	4.0286e-12	1.6412e-14
6042.7080	4.0599e-12	1.4870e-14
6043.9580	4.0518e-12	1.4268e-14
6045.2080	4.0210e-12	1.7022e-14
6046.4580	4.0626e-12	1.6524e-14
6047.7080	4.1000e-12	1.5053e-14
6048.9580	4.1029e-12	1.6248e-14
6050.2080	4.0839e-12	1.2345e-14
6051.4580	4.0004e-12	1.6720e-14
6052.7080	3.9663e-12	1.4618e-14
6053.9580	4.0033e-12	1.6480e-14
6055.2080	4.0079e-12	1.5056e-14
6056.4580	4.0476e-12	1.6922e-14
6057.7080	4.1002e-12	1.6387e-14
6058.9580	4.0975e-12	1.8327e-14
6060.2080	4.0822e-12	1.7023e-14
6061.4580	4.0875e-12	1.5395e-14
6062.7080	4.0798e-12	1.7463e-14
6063.9580	3.9819e-12	1.4547e-14
6065.2080	3.9658e-12	1.7407e-14
6066.4580	4.0477e-12	1.3834e-14
6067.7080	4.0758e-12	1.3997e-14
6068.9580	4.0713e-12	1.9844e-14
6070.2080	4.0739e-12	1.5704e-14
6071.4580	4.0832e-12	1.3511e-14
6072.7080	4.0890e-12	1.7090e-14
6073.9580	4.0842e-12	1.4608e-14
6075.2080	4.0701e-12	1.4095e-14
6076.4580	4.0011e-12	1.4263e-14
6077.7080	3.9396e-12	1.6827e-14
6078.9580	3.9870e-12	1.6104e-14
6080.2080	4.0429e-12	1.7318e-14
6081.4580	4.0217e-12	1.4153e-14
6082.7080	3.9490e-12	1.6793e-14
6083.9580	3.9294e-12	1.5197e-14
6085.2080	3.9571e-12	1.6358e-14
6086.4580	3.9814e-12	1.6644e-14
6087.7080	3.9984e-12	1.7851e-14
6088.9580	3.9968e-12	1.8693e-14
6090.2080	4.0022e-12	2.1234e-14
6091.4580	4.0018e-12	1.7674e-14
6092.7080	4.0065e-12	1.6508e-14
6093.9580	4.0085e-12	1.9213e-14
6095.2080	4.0088e-12	1.4962e-14
6096.4580	4.0082e-12	1.8850e-14
6097.7080	4.0099e-12	1.7300e-14
6098.9580	4.0000e-12	1.9014e-14
6100.2080	3.9228e-12	1.6939e-14
6101.4580	3.7728e-12	1.6180e-14
6102.7080	3.7883e-12	1.5070e-14
6103.9580	3.9379e-12	1.6470e-14
6105.2080	3.9811e-12	1.7182e-14
6106.4580	3.9582e-12	1.9995e-14
6107.7080	3.9552e-12	1.7693e-14
6108.9580	3.9693e-12	2.1701e-14
6110.2080	3.9540e-12	1.7908e-14
6111.4580	3.9215e-12	1.7154e-14
6112.7080	3.9165e-12	1.8663e-14
6113.9580	3.9127e-12	1.8777e-14
6115.2080	3.8943e-12	1.8745e-14
6116.4580	3.9285e-12	1.6748e-14
6117.7080	3.9736e-12	1.9129e-14
6118.9580	3.9615e-12	1.8900e-14
6120.2080	3.8804e-12	1.7909e-14
6121.4580	3.8080e-12	1.9295e-14
6122.7080	3.8580e-12	1.9507e-14
6123.9580	3.9062e-12	1.9103e-14
6125.2080	3.9204e-12	1.8758e-14
6126.4580	3.9269e-12	1.8552e-14
6127.7080	3.8847e-12	1.9919e-14
6128.9580	3.8609e-12	1.9632e-14
6130.2080	3.8830e-12	2.0596e-14
6131.4580	3.9170e-12	2.0409e-14
6132.7080	3.9416e-12	1.9506e-14
6133.9580	3.9085e-12	1.8205e-14
6135.2080	3.7354e-12	1.8073e-14
6136.4580	3.6197e-12	1.6716e-14
6137.7080	3.7590e-12	1.8526e-14
6138.9580	3.8335e-12	2.3292e-14
6140.2080	3.5955e-12	1.8930e-14
6141.4580	3.5485e-12	1.6965e-14
6142.7080	3.8064e-12	2.4416e-14
6143.9580	3.9074e-12	2.0961e-14
6145.2080	3.8647e-12	2.4632e-14
6146.4580	3.7161e-12	1.9597e-14
6147.7080	3.6138e-12	1.9243e-14
6148.9580	3.7135e-12	2.0047e-14
6150.2080	3.8693e-12	2.6660e-14
6151.4580	3.9262e-12	2.1856e-14
6152.7080	3.8876e-12	2.2236e-14
6153.9580	3.8073e-12	2.1232e-14
6155.2080	3.7757e-12	1.9732e-14
6156.4580	3.7814e-12	2.1957e-14
6157.7080	3.8114e-12	2.3518e-14
6158.9580	3.8276e-12	2.2140e-14
6160.2080	3.7300e-12	1.7943e-14
6161.4580	3.6503e-12	1.9927e-14
6162.7080	3.7418e-12	2.2943e-14
6163.9580	3.8474e-12	2.2282e-14
6165.2080	3.8779e-12	2.1134e-14
6166.4580	3.8838e-12	2.1269e-14
6167.7080	3.8245e-12	1.8337e-14
6168.9580	3.7510e-12	2.0077e-14
6170.2080	3.7934e-12	2.2012e-14
6171.4580	3.8517e-12	2.5836e-14
6172.7080	3.8295e-12	2.0245e-14
6173.9580	3.7568e-12	2.1999e-14
6175.2080	3.7153e-12	1.9370e-14
6176.4580	3.7736e-12	2.2614e-14
6177.7080	3.8249e-12	2.4754e-14
6178.9580	3.8363e-12	2.4177e-14
6180.2080	3.8742e-12	2.4054e-14
6181.4580	3.8954e-12	2.1300e-14
6182.7080	3.8850e-12	2.0928e-14
6183.9580	3.8806e-12	2.4405e-14
6185.2080	3.8566e-12	2.2224e-14
6186.4580	3.8479e-12	2.1078e-14
6187.7080	3.8708e-12	2.2825e-14
6188.9580	3.8431e-12	2.3158e-14
6190.2080	3.7083e-12	2.0430e-14
6191.4580	3.7294e-12	2.5879e-14
6192.7080	3.8524e-12	2.5613e-14
6193.9580	3.8595e-12	2.3927e-14
6195.2080	3.8629e-12	2.3837e-14
6196.4580	3.8865e-12	2.4773e-14
6197.7080	3.8731e-12	2.2788e-14
6198.9580	3.8413e-12	2.1097e-14
6200.2080	3.8540e-12	2.0813e-14
6201.4580	3.8780e-12	2.3246e-14
6202.7080	3.8684e-12	1.9320e-14
6203.9580	3.8603e-12	2.2982e-14
6205.2080	3.8775e-12	2.7664e-14
6206.4580	3.8829e-12	2.2419e-14
6207.7080	3.8819e-12	2.4626e-14
6208.9580	3.8870e-12	2.1198e-14
6210.2080	3.8871e-12	2.3191e-14
6211.4580	3.8593e-12	2.6001e-14
6212.7080	3.8141e-12	2.5938e-14
6213.9580	3.7938e-12	2.7638e-14
6215.2080	3.8141e-12	2.7203e-14
6216.4580	3.8481e-12	2.6393e-14
6217.7080	3.8167e-12	2.5031e-14
6218.9580	3.7859e-12	2.4744e-14
6220.2080	3.7924e-12	2.4011e-14
6221.4580	3.8113e-12	2.6529e-14
6222.7080	3.8254e-12	2.5391e-14
6223.9580	3.8358e-12	2.4426e-14
6225.2080	3.8392e-12	2.2327e-14
6226.4580	3.8389e-12	2.3806e-14
6227.7080	3.8102e-12	2.5466e-14
6228.9580	3.6814e-12	2.5032e-14
6230.2080	3.6298e-12	2.5626e-14
6231.4580	3.7056e-12	2.4472e-14
6232.7080	3.7764e-12	2.5140e-14
6233.9580	3.8293e-12	2.5515e-14
6235.2080	3.8038e-12	2.3489e-14
6236.4580	3.6477e-12	2.3757e-14
6237.7080	3.5294e-12	2.5047e-14
6238.9580	3.6087e-12	2.2324e-14
6240.2080	3.7533e-12	2.3345e-14
6241.4580	3.8031e-12	2.6400e-14
6242.7080	3.7493e-12	2.6569e-14
6243.9580	3.7083e-12	2.2857e-14
6245.2080	3.5790e-12	2.4995e-14
6246.4580	3.4459e-12	2.6502e-14
6247.7080	3.5738e-12	2.4573e-14
6248.9580	3.7664e-12	2.5427e-14
6250.2080	3.7785e-12	2.6008e-14
6251.4580	3.6797e-12	2.5884e-14
6252.7080	3.6378e-12	2.4442e-14
6253.9580	3.6779e-12	2.5391e-14
6255.2080	3.7089e-12	2.2242e-14
6256.4580	3.7420e-12	2.8191e-14
6257.7080	3.7694e-12	2.7450e-14
6258.9580	3.7764e-12	2.3340e-14
6260.2080	3.7750e-12	2.5530e-14
6261.4580	3.7711e-12	2.0607e-14
6262.7080	3.7737e-12	2.4732e-14
6263.9580	3.7576e-12	2.4893e-14
6265.2080	3.7700e-12	2.4134e-14
6266.4580	3.7982e-12	2.5822e-14
6267.7080	3.7828e-12	2.7165e-14
6268.9580	3.7448e-12	2.6584e-14
6270.2080	3.7394e-12	2.5990e-14
6271.4580	3.7622e-12	2.4959e-14
6272.7080	3.7747e-12	2.4212e-14
6273.9580	3.7871e-12	2.6749e-14
6275.2080	3.8007e-12	2.3874e-14
6276.4580	3.7793e-12	2.5166e-14
6277.7080	3.7339e-12	2.5107e-14
6278.9580	3.7025e-12	3.7041e-14
6280.2080	3.7139e-12	2.9968e-14
6281.4580	3.7070e-12	2.4543e-14
6282.7080	3.6925e-12	2.9787e-14
6283.9580	3.6915e-12	2.7516e-14
6285.2080	3.6999e-12	2.5432e-14
6286.4580	3.7363e-12	2.5146e-14
6287.7080	3.7552e-12	2.5883e-14
6288.9580	3.7186e-12	2.5283e-14
6290.2080	3.6846e-12	2.6765e-14
6291.4580	3.7053e-12	2.6040e-14
6292.7080	3.7436e-12	2.4800e-14
6293.9580	3.7371e-12	2.8049e-14
6295.2080	3.7275e-12	3.0026e-14
6296.4580	3.7037e-12	2.6646e-14
6297.7080	3.6924e-12	2.6550e-14
6298.9580	3.6731e-12	2.4595e-14
6300.2080	3.5832e-12	2.5405e-14
6301.4580	3.5759e-12	2.6925e-14
6302.7080	3.6488e-12	3.0398e-14
6303.9580	3.6633e-12	2.8383e-14
6305.2080	3.6803e-12	2.3975e-14
6306.4580	3.7114e-12	3.2236e-14
6307.7080	3.7101e-12	2.9636e-14
6308.9580	3.7044e-12	2.4761e-14
6310.2080	3.6987e-12	2.5870e-14
6311.4580	3.6950e-12	2.7932e-14
6312.7080	3.6554e-12	2.7885e-14
6313.9580	3.5906e-12	2.3748e-14
6315.2080	3.5780e-12	2.6129e-14
6316.4580	3.5312e-12	2.6708e-14
6317.7080	3.5278e-12	2.4590e-14
6318.9580	3.6247e-12	3.0080e-14
6320.2080	3.6562e-12	2.9981e-14
6321.4580	3.6460e-12	2.6629e-14
6322.7080	3.6687e-12	2.5582e-14
6323.9580	3.7007e-12	2.4957e-14
6325.2080	3.6910e-12	2.6246e-14
6326.4580	3.6776e-12	2.5050e-14
6327.7080	3.6797e-12	2.5719e-14
6328.9580	3.6742e-12	2.6443e-14
6330.2080	3.6371e-12	2.4027e-14
6331.4580	3.6369e-12	2.6968e-14
6332.7080	3.6584e-12	2.7649e-14
6333.9580	3.6079e-12	2.6988e-14
6335.2080	3.5415e-12	2.6875e-14
6336.4580	3.5508e-12	2.7680e-14
6337.7080	3.5748e-12	2.6608e-14
6338.9580	3.6143e-12	2.7446e-14
6340.2080	3.6617e-12	2.7534e-14
6341.4580	3.6601e-12	2.6974e-14
6342.7080	3.6431e-12	2.6717e-14
6343.9580	3.6130e-12	2.9257e-14
6345.2080	3.4305e-12	2.4929e-14
6346.4580	3.3134e-12	2.0216e-14
6347.7080	3.5092e-12	3.0174e-14
6348.9580	3.6547e-12	2.7615e-14
6350.2080	3.6664e-12	2.6777e-14
6351.4580	3.6624e-12	2.7144e-14
6352.7080	3.6515e-12	2.7231e-14
6353.9580	3.6329e-12	2.6802e-14
6355.2080	3.6394e-12	2.8095e-14
6356.4580	3.6430e-12	2.9571e-14
6357.7080	3.6274e-12	2.7363e-14
6358.9580	3.6150e-12	2.2821e-14
6360.2080	3.5745e-12	2.7873e-14
6361.4580	3.5292e-12	2.7399e-14
6362.7080	3.5679e-12	2.8930e-14
6363.9580	3.6143e-12	2.6402e-14
6365.2080	3.6155e-12	2.8634e-14
6366.4580	3.6153e-12	2.7794e-14
6367.7080	3.5686e-12	2.5881e-14
6368.9580	3.4549e-12	2.5360e-14
6370.2080	3.3387e-12	2.3559e-14
6371.4580	3.4405e-12	2.5608e-14
6372.7080	3.6066e-12	2.7687e-14
6373.9580	3.6336e-12	2.7843e-14
6375.2080	3.6267e-12	2.5129e-14
6376.4580	3.6095e-12	2.4451e-14
6377.7080	3.5959e-12	2.7234e-14
6378.9580	3.5911e-12	2.4984e-14
6380.2080	3.5900e-12	2.6122e-14
6381.4580	3.5813e-12	2.4731e-14
6382.7080	3.5310e-12	2.5547e-14
6383.9580	3.5064e-12	2.5602e-14
6385.2080	3.5501e-12	2.7513e-14
6386.4580	3.6031e-12	2.9395e-14
6387.7080	3.6152e-12	2.8939e-14
6388.9580	3.5952e-12	2.8070e-14
6390.2080	3.5882e-12	2.9234e-14
6391.4580	3.5351e-12	2.3759e-14
6392.7080	3.4632e-12	2.6005e-14
6393.9580	3.5189e-12	2.5275e-14
6395.2080	3.5943e-12	2.5529e-14
6396.4580	3.5943e-12	2.4937e-14
6397.7080	3.5173e-12	2.6031e-14
6398.9580	3.4099e-12	2.7659e-14
6400.2080	3.4700e-12	2.8396e-14
6401.4580	3.5724e-12	2.5041e-14
6402.7080	3.5838e-12	2.7759e-14
6403.9580	3.5805e-12	2.6667e-14
6405.2080	3.5326e-12	2.5094e-14
6406.4580	3.4399e-12	2.6646e-14
6407.7080	3.4580e-12	2.8527e-14
6408.9580	3.5220e-12	2.7354e-14
6410.2080	3.4585e-12	2.8697e-14
6411.4580	3.4554e-12	2.7783e-14
6412.7080	3.5090e-12	2.6243e-14
6413.9580	3.4719e-12	2.5608e-14
6415.2080	3.3810e-12	2.4693e-14
6416.4580	3.3814e-12	2.4582e-14
6417.7080	3.4528e-12	2.3851e-14
6418.9580	3.4221e-12	2.5535e-14
6420.2080	3.3936e-12	2.8591e-14
6421.4580	3.4713e-12	2.9309e-14
6422.7080	3.5416e-12	2.6678e-14
6423.9580	3.5397e-12	2.7471e-14
6425.2080	3.5351e-12	2.8203e-14
6426.4580	3.5440e-12	2.7068e-14
6427.7080	3.5392e-12	2.6243e-14
6428.9580	3.4700e-12	2.5952e-14
6430.2080	3.3798e-12	2.6387e-14
6431.4580	3.3251e-12	2.5432e-14
6432.7080	3.3823e-12	2.8818e-14
6433.9580	3.4977e-12	2.3734e-14
6435.2080	3.5264e-12	2.5355e-14
6436.4580	3.4703e-12	2.6632e-14
6437.7080	3.3584e-12	2.5930e-14
6438.9580	3.3800e-12	2.4436e-14
6440.2080	3.4910e-12	2.5325e-14
6441.4580	3.4917e-12	2.6693e-14
6442.7080	3.4914e-12	2.7450e-14
6443.9580	3.5051e-12	2.5099e-14
6445.2080	3.4791e-12	2.7407e-14
6446.4580	3.4842e-12	2.4087e-14
6447.7080	3.4766e-12	2.6791e-14
6448.9580	3.4417e-12	2.4940e-14
6450.2080	3.4713e-12	2.4076e-14
6451.4580	3.5022e-12	2.4275e-14
6452.7080	3.4818e-12	2.3962e-14
6453.9580	3.3397e-12	2.5995e-14
6455.2080	3.0921e-12	2.5907e-14
6456.4580	3.1693e-12	2.2209e-14
6457.7080	3.4309e-12	2.2784e-14
6458.9580	3.4980e-12	2.6195e-14
6460.2080	3.4381e-12	2.3644e-14
6461.4580	3.3144e-12	2.7828e-14
6462.7080	3.3522e-12	2.3150e-14
6463.9580	3.4735e-12	2.2397e-14
6465.2080	3.4919e-12	2.6384e-14
6466.4580	3.4838e-12	2.7373e-14
6467.7080	3.4574e-12	2.7194e-14
6468.9580	3.4452e-12	2.5445e-14
6470.2080	3.4411e-12	2.4617e-14
6471.4580	3.4446e-12	2.2769e-14
6472.7080	3.4750e-12	2.3727e-14
6473.9580	3.4740e-12	2.8721e-14
6475.2080	3.4673e-12	2.7017e-14
6476.4580	3.4742e-12	2.6733e-14
6477.7080	3.4779e-12	2.5337e-14
6478.9580	3.4678e-12	2.7007e-14
6480.2080	3.4077e-12	2.9850e-14
6481.4580	3.3543e-12	2.4025e-14
6482.7080	3.3848e-12	2.1467e-14
6483.9580	3.4330e-12	2.5937e-14
6485.2080	3.4470e-12	2.4687e-14
6486.4580	3.4481e-12	2.6055e-14
6487.7080	3.4462e-12	2.6115e-14
6488.9580	3.4132e-12	2.5869e-14
6490.2080	3.3372e-12	2.4376e-14
6491.4580	3.2858e-12	2.4538e-14
6492.7080	3.1990e-12	2.8847e-14
6493.9580	3.0822e-12	2.3698e-14
6495.2080	2.9591e-12	2.4252e-14
6496.4580	3.0235e-12	1.9707e-14
6497.7080	3.2755e-12	2.2494e-14
6498.9580	3.3769e-12	2.5582e-14
6500.2080	3.3975e-12	2.4052e-14
6501.4580	3.4101e-12	2.4191e-14
6502.7080	3.4083e-12	2.4815e-14
6503.9580	3.3999e-12	2.4586e-14
6505.2080	3.3863e-12	2.4018e-14
6506.4580	3.3918e-12	2.3625e-14
6507.7080	3.4002e-12	2.2981e-14
6508.9580	3.3976e-12	2.2945e-14
6510.2080	3.3908e-12	2.4518e-14
6511.4580	3.3803e-12	2.6159e-14
6512.7080	3.3613e-12	2.5769e-14
6513.9580	3.2683e-12	2.6763e-14
6515.2080	3.1525e-12	2.3539e-14
6516.4580	3.2033e-12	2.0541e-14
6517.7080	3.2902e-12	2.3970e-14
6518.9580	3.3215e-12	2.0837e-14
6520.2080	3.3335e-12	2.4912e-14
6521.4580	3.3314e-12	2.5654e-14
6522.7080	3.3224e-12	2.4857e-14
6523.9580	3.3075e-12	2.5389e-14
6525.2080	3.2657e-12	2.4345e-14
6526.4580	3.2428e-12	2.4875e-14
6527.7080	3.2689e-12	2.4568e-14
6528.9580	3.2802e-12	2.3986e-14
6530.2080	3.2712e-12	2.3679e-14
6531.4580	3.2503e-12	2.6219e-14
6532.7080	3.2259e-12	2.3422e-14
6533.9580	3.2102e-12	2.3927e-14
6535.2080	3.1954e-12	2.3498e-14
6536.4580	3.1772e-12	2.3172e-14
6537.7080	3.1642e-12	2.2958e-14
6538.9580	3.1573e-12	2.4321e-14
6540.2080	3.1449e-12	2.3608e-14
6541.4580	3.1238e-12	2.3507e-14
6542.7080	3.0974e-12	2.2506e-14
6543.9580	3.0361e-12	2.2683e-14
6545.2080	2.9599e-12	2.4113e-14
6546.4580	2.9571e-12	2.3549e-14
6547.7080	2.9555e-12	2.1742e-14
6548.9580	2.9128e-12	2.3466e-14
6550.2080	2.8677e-12	2.2464e-14
6551.4580	2.8190e-12	2.1166e-14
6552.7080	2.7506e-12	2.0658e-14
6553.9580	2.6586e-12	1.8849e-14
6555.2080	2.5688e-12	1.9990e-14
6556.4580	2.4740e-12	1.9606e-14
6557.7080	2.3420e-12	1.9283e-14
6558.9580	2.1659e-12	1.7348e-14
6560.2080	1.8466e-12	1.8374e-14
6561.4580	1.4193e-12	1.4131e-14
6562.7080	1.4819e-12	1.0572e-14
6563.9580	1.9343e-12	1.7290e-14
6565.2080	2.2149e-12	1.6348e-14
6566.4580	2.3656e-12	1.8597e-14
6567.7080	2.4621e-12	1.7867e-14
6568.9580	2.5605e-12	1.7810e-14
6570.2080	2.6615e-12	1.8190e-14
6571.4580	2.7407e-12	2.0001e-14
6572.7080	2.7939e-12	1.9761e-14
6573.9580	2.8390e-12	2.0131e-14
6575.2080	2.8951e-12	2.1360e-14
6576.4580	2.9369e-12	2.1618e-14
6577.7080	2.9686e-12	2.2341e-14
6578.9580	2.9888e-12	2.1237e-14
6580.2080	3.0124e-12	2.0722e-14
6581.4580	3.0384e-12	2.2141e-14
6582.7080	3.0588e-12	2.0408e-14
6583.9580	3.0679e-12	2.2502e-14
6585.2080	3.0539e-12	2.2492e-14
6586.4580	3.0555e-12	2.2271e-14
6587.7080	3.1019e-12	2.4294e-14
6588.9580	3.1364e-12	2.3644e-14
6590.2080	3.1204e-12	2.5056e-14
6591.4580	3.0442e-12	2.3187e-14
6592.7080	3.0374e-12	2.2572e-14
6593.9580	3.1255e-12	2.3957e-14
6595.2080	3.1609e-12	2.3008e-14
6596.4580	3.1412e-12	2.3934e-14
6597.7080	3.1372e-12	2.2117e-14
6598.9580	3.1753e-12	2.1603e-14
6600.2080	3.1959e-12	2.3701e-14
6601.4580	3.2013e-12	2.4150e-14
6602.7080	3.2001e-12	2.3803e-14
6603.9580	3.1946e-12	2.4344e-14
6605.2080	3.1903e-12	2.4704e-14
6606.4580	3.1913e-12	2.3386e-14
6607.7080	3.1919e-12	2.3170e-14
6608.9580	3.1979e-12	2.1510e-14
6610.2080	3.2109e-12	2.3803e-14
6611.4580	3.1880e-12	2.2938e-14
6612.7080	3.1575e-12	2.0423e-14
6613.9580	3.1780e-12	2.4608e-14
6615.2080	3.2138e-12	2.4839e-14
6616.4580	3.2186e-12	2.5743e-14
6617.7080	3.2200e-12	2.1769e-14
6618.9580	3.2259e-12	2.1548e-14
6620.2080	3.2292e-12	2.1930e-14
6621.4580	3.2264e-12	2.3476e-14
6622.7080	3.2271e-12	2.2459e-14
6623.9580	3.2288e-12	2.3732e-14
6625.2080	3.2133e-12	2.2904e-14
6626.4580	3.1972e-12	2.3873e-14
6627.7080	3.2019e-12	1.5297e-14
6628.9580	3.2159e-12	1.5324e-14
6630.2080	3.2150e-12	2.2093e-14
6631.4580	3.1846e-12	2.2521e-14
6632.7080	3.1336e-12	2.1426e-14
6633.9580	3.1427e-12	2.0285e-14
6635.2080	3.1916e-12	2.0909e-14
6636.4580	3.2183e-12	2.1529e-14
6637.7080	3.2204e-12	2.2199e-14
6638.9580	3.2211e-12	2.1033e-14
6640.2080	3.2272e-12	2.1729e-14
6641.4580	3.1935e-12	2.2449e-14
6642.7080	3.1420e-12	2.1185e-14
6643.9580	3.1469e-12	2.1327e-14
6645.2080	3.1966e-12	2.0470e-14
6646.4580	3.2246e-12	2.0194e-14
6647.7080	3.2214e-12	1.4494e-14
6648.9580	3.2247e-12	1.9402e-14
6650.2080	3.2208e-12	2.1810e-14
6651.4580	3.2232e-12	2.1191e-14
6652.7080	3.2205e-12	2.2262e-14
6653.9580	3.2178e-12	2.3714e-14
6655.2080	3.2190e-12	2.2519e-14
6656.4580	3.2233e-12	2.2418e-14
6657.7080	3.2249e-12	1.8917e-14
6658.9580	3.2233e-12	1.8901e-14
6660.2080	3.2130e-12	1.8595e-14
6661.4580	3.1854e-12	2.2512e-14
6662.7080	3.1706e-12	2.3092e-14
6663.9580	3.1986e-12	2.0463e-14
6665.2080	3.2176e-12	1.8791e-14
6666.4580	3.2178e-12	1.9711e-14
6667.7080	3.2178e-12	2.1492e-14
6668.9580	3.2219e-12	2.1854e-14
6670.2080	3.2181e-12	2.0207e-14
6671.4580	3.2153e-12	2.1935e-14
6672.7080	3.2187e-12	1.8881e-14
6673.9580	3.2233e-12	2.2485e-14
6675.2080	3.1968e-12	2.0534e-14
6676.4580	3.1011e-12	2.1610e-14
6677.7080	3.0786e-12	2.1506e-14
6678.9580	3.1579e-12	2.1244e-14
6680.2080	3.2054e-12	2.2314e-14
6681.4580	3.2207e-12	2.0470e-14
6682.7080	3.2217e-12	1.9800e-14
6683.9580	3.2250e-12	2.1130e-14
6685.2080	3.2260e-12	2.2430e-14
6686.4580	3.2265e-12	2.0359e-14
6687.7080	3.2254e-12	2.4098e-14
6688.9580	3.2208e-12	2.4134e-14
6690.2080	3.2192e-12	2.2718e-14
6691.4580	3.2192e-12	2.2719e-14
6692.7080	3.2170e-12	2.0915e-14
6693.9580	3.2035e-12	2.2989e-14
6695.2080	3.1860e-12	2.3912e-14
6696.4580	3.1884e-12	2.0645e-14
6697.7080	3.1968e-12	1.8856e-14
6698.9580	3.2027e-12	2.2880e-14
6700.2080	3.2084e-12	2.0202e-14
6701.4580	3.2071e-12	2.1817e-14
6702.7080	3.1917e-12	2.1355e-14
6703.9580	3.1765e-12	2.2956e-14
6705.2080	3.1844e-12	2.2017e-14
6706.4580	3.1952e-12	2.0539e-14
6707.7080	3.2012e-12	2.3845e-14
6708.9580	3.2020e-12	2.1684e-14
6710.2080	3.2054e-12	2.5315e-14
6711.4580	3.1904e-12	2.3251e-14
6712.7080	3.1808e-12	2.1860e-14
6713.9580	3.1850e-12	2.1549e-14
6715.2080	3.1700e-12	2.3383e-14
6716.4580	3.1352e-12	2.0846e-14
6717.7080	3.1393e-12	2.0331e-14
6718.9580	3.1744e-12	2.1398e-14
6720.2080	3.1659e-12	2.2507e-14
6721.4580	3.1693e-12	1.9489e-14
6722.7080	3.1881e-12	1.8579e-14
6723.9580	3.1887e-12	2.1472e-14
6725.2080	3.1710e-12	2.1207e-14
6726.4580	3.1733e-12	2.1122e-14
6727.7080	3.1859e-12	2.2149e-14
6728.9580	3.1899e-12	2.1139e-14
6730.2080	3.1900e-12	2.2538e-14
6731.4580	3.1794e-12	2.3695e-14
6732.7080	3.1765e-12	2.0226e-14
6733.9580	3.1808e-12	2.2483e-14
6735.2080	3.1846e-12	2.5155e-14
6736.4580	3.1764e-12	2.3058e-14
6737.7080	3.1736e-12	2.1304e-14
6738.9580	3.1779e-12	2.2051e-14
6740.2080	3.1699e-12	2.1614e-14
6741.4580	3.1348e-12	2.1756e-14
6742.7080	3.1114e-12	2.1094e-14
6743.9580	3.1390e-12	2.2466e-14
6745.2080	3.1646e-12	2.2476e-14
6746.4580	3.1271e-12	2.1994e-14
6747.7080	3.0641e-12	2.3791e-14
6748.9580	3.0806e-12	2.1327e-14
6750.2080	3.1371e-12	2.1952e-14
6751.4580	3.1499e-12	2.2891e-14
6752.7080	3.1551e-12	2.1814e-14
6753.9580	3.1602e-12	2.2102e-14
6755.2080	3.0963e-12	2.4476e-14
6756.4580	3.0604e-12	2.1296e-14
6757.7080	3.1222e-12	2.1672e-14
6758.9580	3.1630e-12	2.3108e-14
6760.2080	3.1648e-12	2.2372e-14
6761.4580	3.1658e-12	2.3257e-14
6762.7080	3.1611e-12	2.2596e-14
6763.9580	3.1591e-12	2.0986e-14
6765.2080	3.1408e-12	2.1073e-14
6766.4580	3.0938e-12	2.2327e-14
6767.7080	3.0932e-12	1.9952e-14
6768.9580	3.1328e-12	2.4103e-14
6770.2080	3.1184e-12	2.2313e-14
6771.4580	3.1006e-12	2.2830e-14
6772.7080	3.1122e-12	2.1929e-14
6773.9580	3.1360e-12	2.1952e-14
6775.2080	3.1449e-12	2.2089e-14
6776.4580	3.1471e-12	2.2813e-14
6777.7080	3.1488e-12	2.0392e-14
6778.9580	3.1443e-12	2.1800e-14
6780.2080	3.1349e-12	2.3416e-14
6781.4580	3.1232e-12	2.3890e-14
6782.7080	3.1196e-12	2.5360e-14
6783.9580	3.1197e-12	2.4302e-14
6785.2080	3.1146e-12	2.0984e-14
6786.4580	3.1213e-12	2.0012e-14
6787.7080	3.1301e-12	2.1328e-14
6788.9580	3.1321e-12	2.0240e-14
6790.2080	3.1301e-12	2.1224e-14
6791.4580	3.1263e-12	2.1660e-14
6792.7080	3.1042e-12	2.2027e-14
6793.9580	3.0660e-12	2.1594e-14
6795.2080	3.0669e-12	2.2645e-14
6796.4580	3.1086e-12	2.0328e-14
6797.7080	3.1209e-12	2.2309e-14
6798.9580	3.1173e-12	2.1285e-14
6800.2080	3.1177e-12	2.2553e-14
6801.4580	3.1153e-12	2.0584e-14
6802.7080	3.1052e-12	2.4150e-14
6803.9580	3.1074e-12	2.2547e-14
6805.2080	3.1134e-12	2.1977e-14
6806.4580	3.1148e-12	2.2393e-14
6807.7080	3.1092e-12	2.3626e-14
6808.9580	3.0877e-12	2.3705e-14
6810.2080	3.0909e-12	2.2737e-14
6811.4580	3.0962e-12	2.2033e-14
6812.7080	3.0914e-12	2.1286e-14
6813.9580	3.0965e-12	1.9657e-14
6815.2080	3.1052e-12	2.1542e-14
6816.4580	3.1066e-12	2.3148e-14
6817.7080	3.1000e-12	2.3453e-14
6818.9580	3.0856e-12	2.1349e-14
6820.2080	3.0881e-12	2.2733e-14
6821.4580	3.0982e-12	2.3947e-14
6822.7080	3.1002e-12	2.2179e-14
6823.9580	3.0972e-12	2.2087e-14
6825.2080	3.0887e-12	2.2948e-14
6826.4580	3.0526e-12	2.4828e-14
6827.7080	3.0291e-12	2.2078e-14
6828.9580	3.0610e-12	2.1139e-14
6830.2080	3.0821e-12	2.1041e-14
6831.4580	3.0755e-12	2.0190e-14
6832.7080	3.0732e-12	2.0647e-14
6833.9580	3.0728e-12	2.1571e-14
6835.2080	3.0694e-12	2.2072e-14
6836.4580	3.0503e-12	2.3715e-14
6837.7080	3.0315e-12	2.0191e-14
6838.9580	3.0220e-12	2.0718e-14
6840.2080	2.9933e-12	2.1662e-14
6841.4580	2.9732e-12	2.1734e-14
6842.7080	2.9950e-12	2.1354e-14
6843.9580	3.0378e-12	2.1198e-14
6845.2080	3.0546e-12	2.2484e-14
6846.4580	3.0495e-12	2.2182e-14
6847.7080	3.0484e-12	1.8394e-14
6848.9580	3.0519e-12	2.0634e-14
6850.2080	3.0581e-12	2.1830e-14
6851.4580	3.0594e-12	2.1387e-14
6852.7080	3.0311e-12	2.3263e-14
6853.9580	2.9813e-12	1.9832e-14
6855.2080	2.9790e-12	1.9821e-14
6856.4580	2.9893e-12	2.2099e-14
6857.7080	2.9979e-12	2.0328e-14
6858.9580	3.0185e-12	2.2179e-14
6860.2080	3.0064e-12	2.1543e-14
6861.4580	3.0051e-12	2.1086e-14
6862.7080	3.0260e-12	2.2512e-14
6863.9580	3.0348e-12	2.4383e-14
6865.2080	3.0337e-12	2.2312e-14
6866.4580	3.0309e-12	1.4292e-14
6867.7080	3.0344e-12	1.1210e-14
6868.9580	2.9719e-12	3.9597e-14
6870.2080	2.9061e-12	3.6982e-14
6871.4580	3.0109e-12	2.1427e-14
6872.7080	3.0338e-12	2.0356e-14
6873.9580	2.9342e-12	1.1475e-14
6875.2080	3.0151e-12	1.4578e-14
6876.4580	3.0367e-12	3.7972e-14
6877.7080	2.9829e-12	4.7573e-14
6878.9580	2.9479e-12	2.8309e-14
6880.2080	2.9260e-12	2.3383e-14
6881.4580	2.9536e-12	2.2010e-14
6882.7080	2.9963e-12	2.1679e-14
6883.9580	2.9989e-12	1.7146e-14
6885.2080	2.9581e-12	1.3448e-14
6886.4580	3.0220e-12	1.5978e-14
6887.7080	2.9928e-12	3.5095e-14
6888.9580	3.0073e-12	2.9144e-14
6890.2080	2.9722e-12	2.4105e-14
6891.4580	2.9572e-12	2.2248e-14
6892.7080	2.9649e-12	1.7135e-14
6893.9580	2.9829e-12	2.2392e-14
6895.2080	2.9691e-12	2.3616e-14
6896.4580	2.9534e-12	1.7097e-14
6897.7080	2.9898e-12	2.8641e-14
6898.9580	2.9980e-12	2.8418e-14
6900.2080	2.9554e-12	2.1480e-14
6901.4580	2.9680e-12	2.1544e-14
6902.7080	3.0215e-12	2.5522e-14
6903.9580	2.9937e-12	2.1949e-14
6905.2080	2.9096e-12	2.1982e-14
6906.4580	2.9259e-12	2.3118e-14
6907.7080	2.9636e-12	1.6672e-14
6908.9580	2.9635e-12	1.2766e-14
6910.2080	2.9559e-12	3.1888e-14
6911.4580	2.9769e-12	3.0093e-14
6912.7080	2.9427e-12	2.0254e-14
6913.9580	2.9422e-12	2.3675e-14
6915.2080	2.9054e-12	2.5168e-14
6916.4580	2.9401e-12	2.0095e-14
6917.7080	2.9619e-12	1.8139e-14
6918.9580	2.9499e-12	2.6961e-14
6920.2080	2.9280e-12	2.6528e-14
6921.4580	2.9474e-12	2.4003e-14
6922.7080	2.9475e-12	2.1217e-14
6923.9580	2.9519e-12	2.1951e-14
6925.2080	2.9299e-12	2.5630e-14
6926.4580	2.9440e-12	2.3721e-14
6927.7080	2.9493e-12	2.2573e-14
6928.9580	2.9455e-12	2.2824e-14
6930.2080	2.9446e-12	2.2046e-14
6931.4580	2.9472e-12	2.3198e-14
6932.7080	2.9507e-12	2.1723e-14
6933.9580	2.9576e-12	2.1162e-14
6935.2080	2.9487e-12	2.3308e-14
6936.4580	2.9375e-12	2.4140e-14
6937.7080	2.9447e-12	2.1193e-14
6938.9580	2.9471e-12	2.0074e-14
6940.2080	2.9458e-12	2.3986e-14
6941.4580	2.9313e-12	2.4421e-14
6942.7080	2.9263e-12	2.2519e-14
6943.9580	2.9067e-12	2.3141e-14
6945.2080	2.9134e-12	2.0734e-14
6946.4580	2.9346e-12	2.0912e-14
6947.7080	2.9351e-12	2.1713e-14
6948.9580	2.9185e-12	2.3409e-14
6950.2080	2.8955e-12	2.3256e-14
6951.4580	2.8992e-12	2.3688e-14
6952.7080	2.9102e-12	2.2630e-14
6953.9580	2.9138e-12	2.4429e-14
6955.2080	2.9244e-12	2.3797e-14
6956.4580	2.9254e-12	2.3674e-14
6957.7080	2.9150e-12	2.3769e-14
6958.9580	2.9135e-12	2.1076e-14
6960.2080	2.9181e-12	2.3982e-14
6961.4580	2.9238e-12	2.5986e-14
6962.7080	2.9213e-12	2.4738e-14
6963.9580	2.9191e-12	2.5798e-14
6965.2080	2.9139e-12	2.1432e-14
6966.4580	2.9154e-12	2.2274e-14
6967.7080	2.9209e-12	2.5126e-14
6968.9580	2.9215e-12	2.3500e-14
6970.2080	2.9212e-12	2.2953e-14
6971.4580	2.9155e-12	2.3378e-14
6972.7080	2.9087e-12	2.5296e-14
6973.9580	2.8890e-12	2.2631e-14
6975.2080	2.8556e-12	2.3211e-14
6976.4580	2.8389e-12	2.1787e-14
6977.7080	2.8355e-12	2.0014e-14
6978.9580	2.8580e-12	2.3137e-14
6980.2080	2.8872e-12	2.3159e-14
6981.4580	2.8974e-12	2.2565e-14
6982.7080	2.9004e-12	2.2263e-14
6983.9580	2.8941e-12	2.3969e-14
6985.2080	2.8882e-12	2.1743e-14
6986.4580	2.8887e-12	2.3094e-14
6987.7080	2.8925e-12	2.3398e-14
6988.9580	2.8966e-12	2.1420e-14
6990.2080	2.8937e-12	2.3410e-14
6991.4580	2.8853e-12	2.2678e-14
6992.7080	2.8762e-12	2.3234e-14
6993.9580	2.8810e-12	2.3276e-14
6995.2080	2.8856e-12	2.3548e-14
6996.4580	2.8778e-12	2.2336e-14
6997.7080	2.8375e-12	2.3058e-14
6998.9580	2.8253e-12	2.3684e-14
7000.2080	2.8502e-12	2.4118e-14
7001.4580	2.8415e-12	2.2216e-14
7002.7080	2.8095e-12	2.2039e-14
7003.9580	2.7836e-12	2.2247e-14
7005.2080	2.7930e-12	2.3022e-14
7006.4580	2.8381e-12	2.2582e-14
7007.7080	2.8714e-12	2.3754e-14
7008.9580	2.8775e-12	2.4490e-14
7010.2080	2.8589e-12	2.1855e-14
7011.4580	2.8414e-12	2.4218e-14
7012.7080	2.8500e-12	2.1869e-14
7013.9580	2.8499e-12	2.3399e-14
7015.2080	2.8057e-12	2.4162e-14
7016.4580	2.7970e-12	2.4979e-14
7017.7080	2.8409e-12	2.1413e-14
7018.9580	2.8664e-12	2.4224e-14
7020.2080	2.8580e-12	2.2037e-14
7021.4580	2.8247e-12	2.4427e-14
7022.7080	2.7950e-12	2.3818e-14
7023.9580	2.8123e-12	2.3511e-14
7025.2080	2.8430e-12	2.3647e-14
7026.4580	2.8553e-12	2.2083e-14
7027.7080	2.8493e-12	2.3469e-14
7028.9580	2.8391e-12	2.4272e-14
7030.2080	2.8398e-12	2.2477e-14
7031.4580	2.8436e-12	2.2413e-14
7032.7080	2.8223e-12	2.5517e-14
7033.9580	2.7980e-12	2.4710e-14
7035.2080	2.8187e-12	2.1776e-14
7036.4580	2.8210e-12	2.2591e-14
7037.7080	2.8114e-12	2.4011e-14
7038.9580	2.8346e-12	2.2008e-14
7040.2080	2.8392e-12	2.2149e-14
7041.4580	2.8349e-12	2.0727e-14
7042.7080	2.8408e-12	2.3002e-14
7043.9580	2.8428e-12	2.2093e-14
7045.2080	2.8477e-12	2.2264e-14
7046.4580	2.8542e-12	2.2973e-14
7047.7080	2.8526e-12	2.2306e-14
7048.9580	2.8480e-12	2.1872e-14
7050.2080	2.8461e-12	2.1479e-14
7051.4580	2.8389e-12	2.3032e-14
7052.7080	2.8341e-12	2.3034e-14
7053.9580	2.8186e-12	2.2648e-14
7055.2080	2.8051e-12	2.3556e-14
7056.4580	2.8171e-12	2.1680e-14
7057.7080	2.8282e-12	2.3878e-14
7058.9580	2.8288e-12	2.3896e-14
7060.2080	2.8238e-12	2.3863e-14
7061.4580	2.8164e-12	2.2629e-14
7062.7080	2.8175e-12	2.3283e-14
7063.9580	2.8190e-12	2.3580e-14
7065.2080	2.8029e-12	2.3659e-14
7066.4580	2.7838e-12	2.2476e-14
7067.7080	2.7915e-12	2.4572e-14
7068.9580	2.8177e-12	2.2422e-14
7070.2080	2.8202e-12	2.3578e-14
7071.4580	2.8193e-12	2.2672e-14
7072.7080	2.8231e-12	2.2148e-14
7073.9580	2.8215e-12	2.3422e-14
7075.2080	2.8120e-12	2.1008e-14
7076.4580	2.8101e-12	2.2479e-14
7077.7080	2.8190e-12	2.2714e-14
7078.9580	2.8243e-12	2.4716e-14
7080.2080	2.8210e-12	2.3041e-14
7081.4580	2.8064e-12	2.3717e-14
7082.7080	2.7788e-12	2.3934e-14
7083.9580	2.7721e-12	2.1713e-14
7085.2080	2.7835e-12	2.2705e-14
7086.4580	2.7933e-12	2.4450e-14
7087.7080	2.7936e-12	2.4828e-14
7088.9580	2.7806e-12	2.3856e-14
7090.2080	2.7784e-12	2.3499e-14
7091.4580	2.7950e-12	2.1607e-14
7092.7080	2.7987e-12	2.2737e-14
7093.9580	2.7939e-12	2.2525e-14
7095.2080	2.7906e-12	2.2987e-14
7096.4580	2.7945e-12	2.1979e-14
7097.7080	2.8009e-12	2.1554e-14
7098.9580	2.7983e-12	2.3243e-14
7100.2080	2.7983e-12	2.3215e-14
7101.4580	2.8060e-12	2.3087e-14
7102.7080	2.8077e-12	2.2963e-14
7103.9580	2.8049e-12	2.3003e-14
7105.2080	2.8023e-12	2.2676e-14
7106.4580	2.7945e-12	2.3343e-14
7107.7080	2.7878e-12	2.3335e-14
7108.9580	2.7818e-12	2.2314e-14
7110.2080	2.7603e-12	2.1976e-14
7111.4580	2.7414e-12	2.4161e-14
7112.7080	2.7439e-12	2.3538e-14
7113.9580	2.7482e-12	2.2994e-14
7115.2080	2.7436e-12	2.2375e-14
7116.4580	2.7492e-12	2.4731e-14
7117.7080	2.7597e-12	2.0903e-14
7118.9580	2.7527e-12	2.2648e-14
7120.2080	2.6958e-12	2.2280e-14
7121.4580	2.6614e-12	2.3535e-14
7122.7080	2.7383e-12	2.0853e-14
7123.9580	2.7829e-12	2.3141e-14
7125.2080	2.7779e-12	2.3708e-14
7126.4580	2.7688e-12	2.1614e-14
7127.7080	2.7608e-12	2.4266e-14
7128.9580	2.7299e-12	2.4731e-14
7130.2080	2.7118e-12	2.3983e-14
7131.4580	2.7359e-12	2.3977e-14
7132.7080	2.7496e-12	2.4223e-14
7133.9580	2.7519e-12	2.1504e-14
7135.2080	2.7676e-12	2.2571e-14
7136.4580	2.7761e-12	2.1792e-14
7137.7080	2.7745e-12	2.3363e-14
7138.9580	2.7734e-12	2.3971e-14
7140.2080	2.7622e-12	2.4441e-14
7141.4580	2.7510e-12	2.0526e-14
7142.7080	2.7546e-12	2.5908e-14
7143.9580	2.7571e-12	2.3139e-14
7145.2080	2.7406e-12	2.4111e-14
7146.4580	2.6772e-12	2.3875e-14
7147.7080	2.6648e-12	2.3172e-14
7148.9580	2.7301e-12	2.2355e-14
7150.2080	2.7512e-12	2.1064e-14
7151.4580	2.7556e-12	2.1732e-14
7152.7080	2.7603e-12	2.4119e-14
7153.9580	2.7461e-12	2.4024e-14
7155.2080	2.7402e-12	2.2720e-14
7156.4580	2.7509e-12	2.2757e-14
7157.7080	2.7534e-12	2.2383e-14
7158.9580	2.7490e-12	2.3938e-14
7160.2080	2.7358e-12	2.3378e-14
7161.4580	2.7148e-12	2.4862e-14
7162.7080	2.6539e-12	2.6215e-14
7163.9580	2.5921e-12	2.4249e-14
7165.2080	2.6397e-12	2.0419e-14
7166.4580	2.7110e-12	2.3110e-14
7167.7080	2.7298e-12	2.4100e-14
7168.9580	2.7303e-12	2.2145e-14
7170.2080	2.7368e-12	2.3648e-14
7171.4580	2.7334e-12	2.3251e-14
7172.7080	2.7293e-12	2.3700e-14
7173.9580	2.7101e-12	2.1501e-14
7175.2080	2.6944e-12	2.3434e-14
7176.4580	2.7006e-12	2.3385e-14
7177.7080	2.7070e-12	2.2188e-14
7178.9580	2.6859e-12	2.2824e-14
7180.2080	2.6514e-12	2.4104e-14
7181.4580	2.6522e-12	2.2402e-14
7182.7080	2.6848e-12	2.2088e-14
7183.9580	2.6757e-12	2.2231e-14
7185.2080	2.6242e-12	2.2027e-14
7186.4580	2.5756e-12	1.9372e-14
7187.7080	2.6283e-12	2.0196e-14
7188.9580	2.6912e-12	2.1259e-14
7190.2080	2.7011e-12	2.3146e-14
7191.4580	2.6651e-12	1.9745e-14
7192.7080	2.6251e-12	2.1479e-14
7193.9580	2.6615e-12	1.9921e-14
7195.2080	2.6703e-12	1.8236e-14
7196.4580	2.6833e-12	1.9638e-14
7197.7080	2.7003e-12	2.0706e-14
7198.9580	2.7065e-12	1.9371e-14
7200.2080	2.6629e-12	1.9940e-14
7201.4580	2.6299e-12	2.0916e-14
7202.7080	2.6795e-12	1.7595e-14
7203.9580	2.6887e-12	1.8197e-14
7205.2080	2.6254e-12	2.4685e-14
7206.4580	2.5751e-12	2.2632e-14
7207.7080	2.6242e-12	1.7553e-14
7208.9580	2.6911e-12	2.1112e-14
7210.2080	2.6966e-12	2.2698e-14
7211.4580	2.6904e-12	2.2759e-14
7212.7080	2.6726e-12	1.8481e-14
7213.9580	2.6613e-12	2.0255e-14
7215.2080	2.6702e-12	2.0975e-14
7216.4580	2.6634e-12	2.2375e-14
7217.7080	2.6503e-12	2.0453e-14
7218.9580	2.6509e-12	2.3057e-14
7220.2080	2.6189e-12	2.2358e-14
7221.4580	2.5801e-12	2.1254e-14
7222.7080	2.5456e-12	2.0214e-14
7223.9580	2.5612e-12	2.0658e-14
7225.2080	2.6275e-12	2.0497e-14
7226.4580	2.6659e-12	2.1858e-14
7227.7080	2.6714e-12	2.2290e-14
7228.9580	2.6704e-12	2.0497e-14
7230.2080	2.6831e-12	2.2469e-14
7231.4580	2.6908e-12	2.3789e-14
7232.7080	2.6677e-12	1.9675e-14
7233.9580	2.6060e-12	2.1374e-14
7235.2080	2.6317e-12	2.0780e-14
7236.4580	2.6653e-12	1.9299e-14
7237.7080	2.6605e-12	2.1526e-14
7238.9580	2.6441e-12	2.1677e-14
7240.2080	2.6246e-12	2.0697e-14
7241.4580	2.6275e-12	2.0962e-14
7242.7080	2.6192e-12	2.1519e-14
7243.9580	2.6119e-12	2.0659e-14
7245.2080	2.6318e-12	1.7173e-14
7246.4580	2.6590e-12	1.9766e-14
7247.7080	2.6600e-12	2.1265e-14
7248.9580	2.6332e-12	2.1203e-14
7250.2080	2.6221e-12	2.2440e-14
7251.4580	2.6370e-12	2.3178e-14
7252.7080	2.6299e-12	2.0846e-14
7253.9580	2.6242e-12	1.9726e-14
7255.2080	2.6374e-12	2.1157e-14
7256.4580	2.6485e-12	2.2649e-14
7257.7080	2.6478e-12	2.1026e-14
7258.9580	2.6335e-12	2.2304e-14
7260.2080	2.6038e-12	2.0477e-14
7261.4580	2.5950e-12	2.2295e-14
7262.7080	2.5967e-12	1.9095e-14
7263.9580	2.5827e-12	2.1991e-14
7265.2080	2.5938e-12	1.8657e-14
7266.4580	2.6248e-12	2.0533e-14
7267.7080	2.6422e-12	2.3183e-14
7268.9580	2.6362e-12	2.3064e-14
7270.2080	2.6331e-12	2.1549e-14
7271.4580	2.6300e-12	2.0890e-14
7272.7080	2.6094e-12	1.8700e-14
7273.9580	2.5811e-12	2.2557e-14
7275.2080	2.6009e-12	2.1600e-14
7276.4580	2.5995e-12	2.0223e-14
7277.7080	2.6018e-12	2.0403e-14
7278.9580	2.6121e-12	1.8981e-14
7280.2080	2.5878e-12	1.9794e-14
7281.4580	2.5351e-12	1.8517e-14
7282.7080	2.5471e-12	1.8405e-14
7283.9580	2.5891e-12	2.0244e-14
7285.2080	2.6003e-12	2.0281e-14
7286.4580	2.5601e-12	2.1100e-14
7287.7080	2.4785e-12	2.0617e-14
7288.9580	2.4935e-12	1.8242e-14
7290.2080	2.5466e-12	2.0274e-14
7291.4580	2.5220e-12	2.0352e-14
7292.7080	2.5531e-12	1.9683e-14
7293.9580	2.5931e-12	1.8257e-14
7295.2080	2.6065e-12	2.1568e-14
7296.4580	2.6039e-12	2.1583e-14
7297.7080	2.6035e-12	2.2383e-14
7298.9580	2.5739e-12	2.1431e-14
7300.2080	2.5440e-12	2.1186e-14
7301.4580	2.5606e-12	2.0084e-14
7302.7080	2.5925e-12	1.9757e-14
7303.9580	2.5929e-12	1.9613e-14
7305.2080	2.5572e-12	2.2553e-14
7306.4580	2.4924e-12	2.2166e-14
7307.7080	2.4707e-12	2.0802e-14
7308.9580	2.4724e-12	1.9498e-14
7310.2080	2.4835e-12	1.8422e-14
7311.4580	2.5509e-12	1.7335e-14
7312.7080	2.5872e-12	2.0427e-14
7313.9580	2.5899e-12	2.0635e-14
7315.2080	2.5885e-12	1.8655e-14
7316.4580	2.5855e-12	1.9198e-14
7317.7080	2.5720e-12	1.9018e-14
7318.9580	2.5135e-12	1.9621e-14
7320.2080	2.5036e-12	2.1098e-14
7321.4580	2.5670e-12	2.1640e-14
7322.7080	2.5833e-12	2.2609e-14
7323.9580	2.5570e-12	2.2930e-14
7325.2080	2.5301e-12	2.1925e-14
7326.4580	2.5490e-12	2.1411e-14
7327.7080	2.5660e-12	2.2981e-14
7328.9580	2.5357e-12	1.9377e-14
7330.2080	2.5254e-12	2.0231e-14
7331.4580	2.5535e-12	1.9022e-14
7332.7080	2.5592e-12	2.1943e-14
7333.9580	2.5599e-12	2.0990e-14
7335.2080	2.5712e-12	2.2421e-14
7336.4580	2.5754e-12	2.1075e-14
7337.7080	2.5779e-12	2.0428e-14
7338.9580	2.5773e-12	2.1202e-14
7340.2080	2.5753e-12	2.1683e-14
7341.4580	2.5705e-12	2.0420e-14
7342.7080	2.5669e-12	2.0858e-14
7343.9580	2.5656e-12	2.1016e-14
7345.2080	2.5624e-12	1.9713e-14
7346.4580	2.5575e-12	2.0750e-14
7347.7080	2.5605e-12	1.9808e-14
7348.9580	2.5464e-12	1.9392e-14
7350.2080	2.5188e-12	1.8203e-14
7351.4580	2.5116e-12	1.8449e-14
7352.7080	2.5124e-12	2.1403e-14
7353.9580	2.5020e-12	2.0285e-14
7355.2080	2.5074e-12	1.8606e-14
7356.4580	2.5373e-12	1.9479e-14
7357.7080	2.5517e-12	1.8553e-14
7358.9580	2.5490e-12	1.9472e-14
7360.2080	2.5283e-12	2.0679e-14
7361.4580	2.5143e-12	2.1662e-14
7362.7080	2.5265e-12	2.0193e-14
7363.9580	2.5372e-12	2.0587e-14
7365.2080	2.5394e-12	2.0923e-14
7366.4580	2.5422e-12	1.9886e-14
7367.7080	2.5349e-12	1.9281e-14
7368.9580	2.5204e-12	1.8273e-14
7370.2080	2.5277e-12	1.7917e-14
7371.4580	2.5341e-12	2.0322e-14
7372.7080	2.5263e-12	1.9548e-14
7373.9580	2.5141e-12	1.8507e-14
7375.2080	2.5057e-12	2.1547e-14
7376.4580	2.5234e-12	2.1440e-14
7377.7080	2.5392e-12	1.9687e-14
7378.9580	2.5393e-12	1.9796e-14
7380.2080	2.5254e-12	1.9108e-14
7381.4580	2.5131e-12	1.8019e-14
7382.7080	2.5163e-12	2.0131e-14
7383.9580	2.4729e-12	2.1107e-14
7385.2080	2.4043e-12	1.9320e-14
7386.4580	2.4096e-12	1.9398e-14
7387.7080	2.4227e-12	1.9778e-14
7388.9580	2.4515e-12	2.2113e-14
7390.2080	2.5078e-12	1.8633e-14
7391.4580	2.4757e-12	1.8806e-14
7392.7080	2.4302e-12	1.8658e-14
7393.9580	2.4718e-12	1.9466e-14
7395.2080	2.5129e-12	2.0457e-14
7396.4580	2.5218e-12	2.1947e-14
7397.7080	2.5105e-12	2.2566e-14
7398.9580	2.4760e-12	2.0661e-14
7400.2080	2.4656e-12	1.9191e-14
7401.4580	2.4958e-12	2.0137e-14
7402.7080	2.5090e-12	2.1233e-14
7403.9580	2.4634e-12	1.9218e-14
7405.2080	2.4443e-12	1.9047e-14
7406.4580	2.4632e-12	2.0505e-14
7407.7080	2.4003e-12	2.0396e-14
7408.9580	2.3700e-12	1.7793e-14
7410.2080	2.4138e-12	1.8737e-14
7411.4580	2.4670e-12	1.9872e-14
7412.7080	2.4706e-12	2.2554e-14
7413.9580	2.3863e-12	2.0097e-14
7415.2080	2.3710e-12	1.9063e-14
7416.4580	2.4442e-12	1.9552e-14
7417.7080	2.4660e-12	1.9118e-14
7418.9580	2.4655e-12	1.9032e-14
7420.2080	2.4206e-12	1.9932e-14
7421.4580	2.3325e-12	1.8625e-14
7422.7080	2.3451e-12	2.0428e-14
7423.9580	2.4364e-12	1.9494e-14
7425.2080	2.4745e-12	2.1838e-14
7426.4580	2.4802e-12	2.2309e-14
7427.7080	2.4885e-12	2.1903e-14
7428.9580	2.4797e-12	2.0466e-14
7430.2080	2.4514e-12	2.0335e-14
7431.4580	2.4390e-12	1.7985e-14
7432.7080	2.4613e-12	1.9816e-14
7433.9580	2.4729e-12	2.0749e-14
7435.2080	2.4731e-12	2.1285e-14
7436.4580	2.4778e-12	2.2422e-14
7437.7080	2.4773e-12	2.1530e-14
7438.9580	2.4551e-12	2.1011e-14
7440.2080	2.4195e-12	2.0897e-14
7441.4580	2.4012e-12	2.1989e-14
7442.7080	2.4140e-12	2.1642e-14
7443.9580	2.3871e-12	1.9336e-14
7445.2080	2.3687e-12	1.9312e-14
7446.4580	2.3960e-12	1.8895e-14
7447.7080	2.3704e-12	1.9590e-14
7448.9580	2.3647e-12	1.7366e-14
7450.2080	2.4236e-12	2.0752e-14
7451.4580	2.4621e-12	1.9189e-14
7452.7080	2.4660e-12	2.0373e-14
7453.9580	2.4648e-12	2.0261e-14
7455.2080	2.4652e-12	2.0750e-14
7456.4580	2.4640e-12	1.9403e-14
7457.7080	2.4637e-12	1.9906e-14
7458.9580	2.4536e-12	2.0368e-14
7460.2080	2.3805e-12	2.1715e-14
7461.4580	2.3132e-12	1.9016e-14
7462.7080	2.3795e-12	1.8886e-14
7463.9580	2.4499e-12	1.9455e-14
7465.2080	2.4478e-12	2.0794e-14
7466.4580	2.4110e-12	2.0017e-14
7467.7080	2.4003e-12	2.1217e-14
7468.9580	2.4357e-12	1.9960e-14
7470.2080	2.4506e-12	1.9266e-14
7471.4580	2.4426e-12	2.0816e-14
7472.7080	2.4380e-12	1.9440e-14
7473.9580	2.4389e-12	1.9197e-14
7475.2080	2.4329e-12	1.7986e-14
7476.4580	2.4291e-12	1.8446e-14
7477.7080	2.4143e-12	1.7242e-14
7478.9580	2.3996e-12	1.7792e-14
7480.2080	2.4064e-12	1.8046e-14
7481.4580	2.4083e-12	1.9407e-14
7482.7080	2.4150e-12	2.0266e-14
7483.9580	2.4270e-12	1.7282e-14
7485.2080	2.4329e-12	2.0329e-14
7486.4580	2.4329e-12	1.9861e-14
7487.7080	2.4374e-12	2.1005e-14
7488.9580	2.4279e-12	1.7827e-14
7490.2080	2.4090e-12	1.9029e-14
7491.4580	2.4049e-12	1.8977e-14
7492.7080	2.3745e-12	1.8122e-14
7493.9580	2.3076e-12	1.7334e-14
7495.2080	2.3504e-12	1.8096e-14
7496.4580	2.4212e-12	1.9625e-14
7497.7080	2.4278e-12	2.0031e-14
7498.9580	2.4273e-12	1.9448e-14
7500.2080	2.4284e-12	1.9952e-14
7501.4580	2.4246e-12	1.9476e-14
7502.7080	2.4145e-12	1.9214e-14
7503.9580	2.4032e-12	1.7736e-14
7505.2080	2.3924e-12	1.8422e-14
7506.4580	2.3895e-12	1.8551e-14
7507.7080	2.4004e-12	1.8706e-14
7508.9580	2.3355e-12	1.8666e-14
7510.2080	2.2764e-12	1.8660e-14
7511.4580	2.3199e-12	1.8085e-14
7512.7080	2.3557e-12	2.1149e-14
7513.9580	2.3343e-12	1.9223e-14
7515.2080	2.3414e-12	1.8240e-14
7516.4580	2.3903e-12	1.9051e-14
7517.7080	2.4110e-12	1.9739e-14
7518.9580	2.4066e-12	1.9513e-14
7520.2080	2.3828e-12	2.1742e-14
7521.4580	2.3421e-12	1.8472e-14
7522.7080	2.3316e-12	1.6408e-14
7523.9580	2.3403e-12	1.8612e-14
7525.2080	2.3674e-12	1.9849e-14
7526.4580	2.3964e-12	1.9752e-14
7527.7080	2.3947e-12	2.0528e-14
7528.9580	2.3663e-12	1.9664e-14
7530.2080	2.3309e-12	1.9262e-14
7531.4580	2.3236e-12	1.8351e-14
7532.7080	2.3410e-12	1.9181e-14
7533.9580	2.3761e-12	1.9619e-14
7535.2080	2.3940e-12	1.6895e-14
7536.4580	2.3941e-12	1.7312e-14
7537.7080	2.3930e-12	1.7672e-14
7538.9580	2.3924e-12	2.0135e-14
7540.2080	2.3873e-12	1.8552e-14
7541.4580	2.3873e-12	1.9962e-14
7542.7080	2.3881e-12	1.8069e-14
7543.9580	2.3753e-12	1.8014e-14
7545.2080	2.3602e-12	1.8933e-14
7546.4580	2.3619e-12	1.9223e-14
7547.7080	2.3743e-12	2.0845e-14
7548.9580	2.3818e-12	2.1373e-14
7550.2080	2.3746e-12	1.9343e-14
7551.4580	2.3694e-12	1.8665e-14
7552.7080	2.3484e-12	1.9324e-14
7553.9580	2.2933e-12	1.6336e-14
7555.2080	2.2917e-12	1.5692e-14
7556.4580	2.3434e-12	1.8112e-14
7557.7080	2.3524e-12	1.7105e-14
7558.9580	2.3498e-12	1.8944e-14
7560.2080	2.3551e-12	1.9773e-14
7561.4580	2.3525e-12	1.9237e-14
7562.7080	2.3509e-12	1.8453e-14
7563.9580	2.3540e-12	1.5988e-14
7565.2080	2.3522e-12	1.8331e-14
7566.4580	2.3342e-12	1.8698e-14
7567.7080	2.3196e-12	1.8017e-14
7568.9580	2.3358e-12	1.9435e-14
7570.2080	2.3529e-12	1.8988e-14
7571.4580	2.3353e-12	1.9395e-14
7572.7080	2.3008e-12	1.8272e-14
7573.9580	2.3122e-12	1.8844e-14
7575.2080	2.3486e-12	2.0227e-14
7576.4580	2.3562e-12	1.9468e-14
7577.7080	2.3511e-12	1.8807e-14
7578.9580	2.3426e-12	1.9176e-14
7580.2080	2.3371e-12	1.7732e-14
7581.4580	2.3293e-12	1.8307e-14
7582.7080	2.3120e-12	1.8058e-14
7583.9580	2.2765e-12	1.8767e-14
7585.2080	2.2591e-12	1.6472e-14
7586.4580	2.2958e-12	1.7435e-14
7587.7080	2.3281e-12	2.0005e-14
7588.9580	2.3348e-12	1.9051e-14
7590.2080	2.3345e-12	1.5230e-14
7591.4580	2.3391e-12	1.7060e-14
7592.7080	2.3486e-12	2.1546e-14
7593.9580	2.3416e-12	1.8787e-14
7595.2080	2.3155e-12	1.3691e-14
7596.4580	2.3208e-12	1.2584e-14
7597.7080	2.3036e-12	1.3637e-14
7598.9580	2.3669e-12	8.3634e-15
7600.2080	2.1950e-12	2.5974e-14
7601.4580	2.0381e-12	1.1080e-14
7602.7080	2.2041e-12	4.2764e-14
7603.9580	2.1877e-12	1.6384e-14
7605.2080	2.2011e-12	1.7393e-14
7606.4580	2.3620e-12	1.5826e-14
7607.7080	2.3109e-12	1.2829e-14
7608.9580	2.1672e-12	1.6333e-14
7610.2080	2.1927e-12	1.6366e-14
7611.4580	2.0951e-12	2.7787e-14
7612.7080	2.2606e-12	2.2760e-14
7613.9580	2.4230e-12	3.8931e-14
7615.2080	2.3083e-12	3.1770e-14
7616.4580	2.1664e-12	8.9359e-15
7617.7080	2.1932e-12	1.5711e-14
7618.9580	2.2177e-12	1.7152e-14
7620.2080	2.2056e-12	2.0007e-14
7621.4580	2.3087e-12	1.0818e-14
7622.7080	2.1850e-12	9.3388e-15
7623.9580	2.2299e-12	1.7327e-14
7625.2080	2.4011e-12	1.7433e-14
7626.4580	2.2241e-12	2.1139e-14
7627.7080	2.1987e-12	1.9036e-14
7628.9580	2.3841e-12	1.4801e-14
7630.2080	2.2570e-12	2.1170e-14
7631.4580	2.2169e-12	2.3532e-14
7632.7080	2.3703e-12	1.0833e-14
7633.9580	2.3579e-12	1.3427e-14
7635.2080	2.3443e-12	2.4580e-14
7636.4580	2.2222e-12	1.1038e-14
7637.7080	2.1788e-12	1.4423e-14
7638.9580	2.1355e-12	1.8519e-14
7640.2080	2.1911e-12	1.7635e-14
7641.4580	2.4148e-12	1.7988e-14
7642.7080	2.3884e-12	1.3811e-14
7643.9580	2.2851e-12	1.1938e-14
7645.2080	2.2172e-12	1.5716e-14
7646.4580	2.2482e-12	2.4748e-14
7647.7080	2.3364e-12	2.0810e-14
7648.9580	2.3310e-12	1.6169e-14
7650.2080	2.2194e-12	1.8128e-14
7651.4580	2.2044e-12	1.9338e-14
7652.7080	2.2866e-12	1.8906e-14
7653.9580	2.2777e-12	1.8001e-14
7655.2080	2.1728e-12	1.9915e-14
7656.4580	2.1449e-12	1.5358e-14
7657.7080	2.2093e-12	1.4486e-14
7658.9580	2.1739e-12	1.1767e-14
7660.2080	2.2020e-12	1.5095e-14
7661.4580	2.2386e-12	2.6920e-14
7662.7080	2.1949e-12	2.3137e-14
7663.9580	2.1252e-12	1.7916e-14
7665.2080	2.1849e-12	1.8162e-14
7666.4580	2.2746e-12	1.3251e-14
7667.7080	2.2703e-12	1.5634e-14
7668.9580	2.2427e-12	1.3971e-14
7670.2080	2.2283e-12	1.0307e-14
7671.4580	2.2609e-12	1.3494e-14
7672.7080	2.2771e-12	2.3268e-14
7673.9580	2.2865e-12	2.2099e-14
7675.2080	2.2922e-12	1.5424e-14
7676.4580	2.2814e-12	1.5974e-14
7677.7080	2.2091e-12	1.7972e-14
7678.9580	2.1712e-12	1.5826e-14
7680.2080	2.2224e-12	1.4614e-14
7681.4580	2.2722e-12	1.7324e-14
7682.7080	2.2701e-12	2.1334e-14
7683.9580	2.2263e-12	1.8470e-14
7685.2080	2.2148e-12	1.5282e-14
7686.4580	2.2315e-12	1.7460e-14
7687.7080	2.2357e-12	1.4767e-14
7688.9580	2.2259e-12	1.2964e-14
7690.2080	2.2013e-12	1.9096e-14
7691.4580	2.2054e-12	1.5445e-14
7692.7080	2.2367e-12	1.5430e-14
7693.9580	2.2317e-12	1.3503e-14
7695.2080	2.2012e-12	1.6626e-14
7696.4580	2.1886e-12	1.5626e-14
7697.7080	2.1862e-12	1.6634e-14
7698.9580	2.2104e-12	1.7675e-14
7700.2080	2.2402e-12	1.5746e-14
7701.4580	2.2425e-12	1.5369e-14
7702.7080	2.2368e-12	1.5879e-14
7703.9580	2.2284e-12	1.4854e-14
7705.2080	2.2292e-12	1.5130e-14
7706.4580	2.2321e-12	1.6255e-14
7707.7080	2.2227e-12	1.4378e-14
7708.9580	2.1663e-12	1.5121e-14
7710.2080	2.0744e-12	1.6998e-14
7711.4580	2.0963e-12	1.4230e-14
7712.7080	2.1486e-12	1.4238e-14
7713.9580	2.1439e-12	1.6757e-14
7715.2080	2.1824e-12	1.6367e-14
7716.4580	2.2128e-12	1.5035e-14
7717.7080	2.2094e-12	1.7851e-14
7718.9580	2.2107e-12	1.6354e-14
7720.2080	2.2110e-12	1.4407e-14
7721.4580	2.2077e-12	1.5896e-14
7722.7080	2.2061e-12	1.6100e-14
7723.9580	2.2086e-12	1.5642e-14
7725.2080	2.1730e-12	1.7342e-14
7726.4580	2.1312e-12	1.6595e-14
7727.7080	2.1610e-12	1.3188e-14
7728.9580	2.2010e-12	1.4411e-14
7730.2080	2.1929e-12	1.4749e-14
7731.4580	2.1855e-12	1.5326e-14
7732.7080	2.1947e-12	1.6655e-14
7733.9580	2.2004e-12	1.5234e-14
7735.2080	2.2014e-12	1.6075e-14
7736.4580	2.2040e-12	1.4256e-14
7737.7080	2.2044e-12	1.5536e-14
7738.9580	2.1989e-12	1.5267e-14
7740.2080	2.1667e-12	1.3953e-14
7741.4580	2.1181e-12	1.4660e-14
7742.7080	2.1340e-12	1.6660e-14
7743.9580	2.1746e-12	1.4482e-14
7745.2080	2.1706e-12	1.6223e-14
7746.4580	2.1164e-12	1.5802e-14
7747.7080	2.0694e-12	1.4565e-14
7748.9580	2.1116e-12	1.2815e-14
7750.2080	2.1619e-12	1.5407e-14
7751.4580	2.1775e-12	1.4989e-14
7752.7080	2.1835e-12	1.5939e-14
7753.9580	2.1788e-12	1.4535e-14
7755.2080	2.1764e-12	1.5694e-14
7756.4580	2.1761e-12	1.5313e-14
7757.7080	2.1714e-12	1.3972e-14
7758.9580	2.1664e-12	1.3514e-14
7760.2080	2.1632e-12	1.5343e-14
7761.4580	2.1705e-12	1.6829e-14
7762.7080	2.1700e-12	1.4934e-14
7763.9580	2.1696e-12	1.4529e-14
7765.2080	2.1711e-12	1.2037e-14
7766.4580	2.1698e-12	1.4589e-14
7767.7080	2.1688e-12	1.6683e-14
7768.9580	2.1292e-12	1.2877e-14
7770.2080	1.9729e-12	1.4497e-14
7771.4580	1.8894e-12	1.5913e-14
7772.7080	1.8565e-12	1.1311e-14
7773.9580	1.8263e-12	1.5908e-14
7775.2080	1.9884e-12	1.3329e-14
7776.4580	2.1296e-12	1.4280e-14
7777.7080	2.1359e-12	1.3633e-14
7778.9580	2.0794e-12	1.3674e-14
7780.2080	2.0766e-12	1.5656e-14
7781.4580	2.1316e-12	1.3318e-14
7782.7080	2.1507e-12	1.3160e-14
7783.9580	2.1524e-12	1.5535e-14
7785.2080	2.1489e-12	1.3970e-14
7786.4580	2.1336e-12	1.3877e-14
7787.7080	2.1095e-12	1.4607e-14
7788.9580	2.1169e-12	1.4371e-14
7790.2080	2.1368e-12	1.6048e-14
7791.4580	2.1430e-12	1.3512e-14
7792.7080	2.1432e-12	1.3715e-14
7793.9580	2.1419e-12	1.5029e-14
7795.2080	2.1123e-12	1.3221e-14
7796.4580	2.0709e-12	1.1375e-14
7797.7080	2.0739e-12	1.3880e-14
7798.9580	2.0883e-12	1.3871e-14
7800.2080	2.1049e-12	1.2826e-14
7801.4580	2.1276e-12	1.3754e-14
7802.7080	2.1328e-12	1.2872e-14
7803.9580	2.1318e-12	1.4360e-14
7805.2080	2.1254e-12	1.3318e-14
7806.4580	2.1035e-12	1.4792e-14
7807.7080	2.1045e-12	1.5216e-14
7808.9580	2.1161e-12	1.1505e-14
7810.2080	2.1162e-12	1.3927e-14
7811.4580	2.1197e-12	1.4869e-14
7812.7080	2.1254e-12	1.5437e-14
7813.9580	2.1271e-12	1.3447e-14
7815.2080	2.1238e-12	1.4375e-14
7816.4580	2.1131e-12	1.4868e-14
7817.7080	2.1147e-12	1.3992e-14
7818.9580	2.1185e-12	1.4162e-14
7820.2080	2.1207e-12	1.4630e-14
7821.4580	2.1211e-12	1.4556e-14
7822.7080	2.1229e-12	1.5269e-14
7823.9580	2.1195e-12	1.4450e-14
7825.2080	2.1121e-12	1.5721e-14
7826.4580	2.1124e-12	1.4901e-14
7827.7080	2.1116e-12	1.4105e-14
7828.9580	2.1007e-12	1.2515e-14
7830.2080	2.0517e-12	1.3507e-14
7831.4580	2.0236e-12	1.4112e-14
7832.7080	2.0648e-12	1.4092e-14
7833.9580	2.0681e-12	1.1580e-14
7835.2080	2.0556e-12	1.1534e-14
7836.4580	2.0818e-12	1.3215e-14
7837.7080	2.0976e-12	1.3539e-14
7838.9580	2.0950e-12	1.5113e-14
7840.2080	2.0881e-12	1.3852e-14
7841.4580	2.0894e-12	1.3204e-14
7842.7080	2.0936e-12	1.4790e-14
7843.9580	2.0943e-12	1.2672e-14
7845.2080	2.0981e-12	1.3805e-14
7846.4580	2.0933e-12	1.2705e-14
7847.7080	2.0766e-12	1.3139e-14
7848.9580	2.0582e-12	1.3994e-14
7850.2080	2.0714e-12	1.2061e-14
7851.4580	2.0850e-12	1.3628e-14
7852.7080	2.0901e-12	1.2677e-14
7853.9580	2.0861e-12	1.3234e-14
7855.2080	2.0867e-12	1.3729e-14
7856.4580	2.0936e-12	1.2155e-14
7857.7080	2.0940e-12	1.2250e-14
7858.9580	2.0851e-12	1.2269e-14
7860.2080	2.0797e-12	1.4147e-14
7861.4580	2.0833e-12	1.2815e-14
7862.7080	2.0803e-12	1.3618e-14
7863.9580	2.0825e-12	1.3474e-14
7865.2080	2.0861e-12	1.2390e-14
7866.4580	2.0853e-12	1.1903e-14
7867.7080	2.0839e-12	1.3384e-14
7868.9580	2.0810e-12	1.3160e-14
7870.2080	2.0821e-12	1.3436e-14
7871.4580	2.0870e-12	1.3359e-14
7872.7080	2.0857e-12	1.2897e-14
7873.9580	2.0728e-12	1.1486e-14
7875.2080	2.0218e-12	1.2282e-14
7876.4580	2.0056e-12	1.1630e-14
7877.7080	2.0535e-12	1.1982e-14
7878.9580	2.0631e-12	1.3297e-14
7880.2080	2.0242e-12	1.2533e-14
7881.4580	2.0267e-12	1.3291e-14
7882.7080	2.0647e-12	1.2325e-14
7883.9580	2.0771e-12	1.0888e-14
7885.2080	2.0770e-12	1.2592e-14
7886.4580	2.0766e-12	1.3689e-14
7887.7080	2.0767e-12	1.2703e-14
7888.9580	2.0724e-12	1.2260e-14
7890.2080	2.0714e-12	1.2781e-14
7891.4580	2.0719e-12	1.1945e-14
7892.7080	2.0653e-12	1.4931e-14
7893.9580	2.0070e-12	1.2335e-14
7895.2080	1.9379e-12	1.2194e-14
7896.4580	1.9946e-12	1.4648e-14
7897.7080	2.0609e-12	1.1463e-14
7898.9580	2.0659e-12	9.5499e-15
7900.2080	2.0623e-12	1.3651e-14
7901.4580	2.0609e-12	1.4505e-14
7902.7080	2.0662e-12	1.4328e-14
7903.9580	2.0691e-12	1.4261e-14
7905.2080	2.0659e-12	1.4237e-14
7906.4580	2.0604e-12	1.1077e-14
7907.7080	2.0563e-12	1.1961e-14
7908.9580	2.0593e-12	1.2416e-14
7910.2080	2.0573e-12	1.5286e-14
7911.4580	2.0512e-12	1.2590e-14
7912.7080	2.0513e-12	1.3201e-14
7913.9580	2.0561e-12	1.2121e-14
7915.2080	2.0431e-12	1.2069e-14
7916.4580	2.0082e-12	1.1335e-14
7917.7080	2.0044e-12	1.2459e-14
7918.9580	2.0396e-12	1.2143e-14
7920.2080	2.0518e-12	1.2717e-14
7921.4580	2.0414e-12	1.2382e-14
7922.7080	2.0162e-12	1.2796e-14
7923.9580	2.0174e-12	1.0685e-14
7925.2080	2.0324e-12	1.2331e-14
7926.4580	2.0333e-12	9.3756e-15
7927.7080	2.0206e-12	1.1580e-14
7928.9580	1.9998e-12	1.1722e-14
7930.2080	1.9569e-12	1.2734e-14
7931.4580	1.9447e-12	1.2395e-14
7932.7080	1.9966e-12	1.2722e-14
7933.9580	2.0273e-12	1.2946e-14
7935.2080	1.9776e-12	1.1222e-14
7936.4580	1.9554e-12	1.2271e-14
7937.7080	2.0153e-12	1.1694e-14
7938.9580	2.0375e-12	8.4418e-15
7940.2080	2.0356e-12	1.0449e-14
7941.4580	2.0107e-12	1.0153e-14
7942.7080	1.9549e-12	1.3407e-14
7943.9580	1.9166e-12	1.0833e-14
7945.2080	1.9407e-12	1.3150e-14
7946.4580	2.0027e-12	1.1876e-14
7947.7080	2.0330e-12	1.2561e-14
7948.9580	2.0372e-12	1.2939e-14
7950.2080	2.0327e-12	1.1888e-14
7951.4580	2.0250e-12	8.2338e-15
7952.7080	2.0270e-12	1.1160e-14
7953.9580	2.0311e-12	8.7932e-15
7955.2080	2.0351e-12	1.2427e-14
7956.4580	2.0374e-12	1.1701e-14
7957.7080	2.0328e-12	1.2276e-14
7958.9580	2.0315e-12	1.0498e-14
7960.2080	2.0322e-12	1.1045e-14
7961.4580	2.0313e-12	7.0521e-15
7962.7080	2.0305e-12	1.1529e-14
7963.9580	2.0283e-12	1.2321e-14
7965.2080	2.0281e-12	9.9773e-15
7966.4580	2.0278e-12	5.4019e-15
7967.7080	2.0223e-12	9.8485e-15
7968.9580	2.0155e-12	7.1863e-15
7970.2080	2.0219e-12	1.2685e-14
7971.4580	2.0270e-12	1.2123e-14
7972.7080	2.0271e-12	1.1163e-14
7973.9580	2.0255e-12	1.0138e-14
7975.2080	2.0264e-12	1.3507e-14
7976.4580	2.0280e-12	1.1744e-14
7977.7080	2.0279e-12	1.1405e-14
7978.9580	2.0260e-12	1.1315e-14
7980.2080	2.0228e-12	1.2125e-14
7981.4580	2.0189e-12	1.1064e-14
7982.7080	2.0204e-12	1.1153e-14
7983.9580	2.0179e-12	7.4379e-15
7985.2080	2.0168e-12	8.4009e-15
7986.4580	2.0174e-12	1.1781e-14
7987.7080	2.0167e-12	1.2877e-14
7988.9580	2.0161e-12	1.0675e-14
7990.2080	2.0121e-12	7.8531e-15
7991.4580	2.0128e-12	1.1264e-14
7992.7080	2.0048e-12	1.1926e-14
7993.9580	2.0023e-12	1.2095e-14
7995.2080	2.0034e-12	1.2626e-14
7996.4580	1.9739e-12	1.1541e-14
7997.7080	1.9252e-12	9.4977e-15
7998.9580	1.9512e-12	1.0843e-14
8000.2080	2.0008e-12	1.0872e-14
8001.4580	2.0093e-12	1.2290e-14
8002.7080	2.0086e-12	9.9761e-15
8003.9580	2.0051e-12	9.8232e-15
8005.2080	1.9987e-12	1.1571e-14
8006.4580	1.9952e-12	1.0395e-14
8007.7080	1.9975e-12	9.8890e-15
8008.9580	1.9996e-12	1.2373e-14
8010.2080	2.0006e-12	1.2325e-14
8011.4580	1.9939e-12	1.1228e-14
8012.7080	1.9896e-12	1.1119e-14
8013.9580	1.9962e-12	1.1701e-14
8015.2080	1.9990e-12	1.2469e-14
8016.4580	1.9976e-12	1.2376e-14
8017.7080	1.9962e-12	1.0633e-14
8018.9580	1.9957e-12	9.3239e-15
8020.2080	1.9926e-12	8.7604e-15
8021.4580	1.9910e-12	6.7282e-15
8022.7080	1.9835e-12	9.3849e-15
8023.9580	1.9790e-12	1.1529e-14
8025.2080	1.9647e-12	1.1128e-14
8026.4580	1.9498e-12	9.5680e-15
8027.7080	1.9541e-12	1.0152e-14
8028.9580	1.9767e-12	9.9449e-15
8030.2080	1.9818e-12	6.1466e-15
8031.4580	1.9834e-12	5.4553e-15
8032.7080	1.9860e-12	1.0795e-14
8033.9580	1.9760e-12	9.0505e-15
8035.2080	1.9770e-12	8.7616e-15
8036.4580	1.9819e-12	1.0638e-14
8037.7080	1.9840e-12	9.8628e-15
8038.9580	1.9827e-12	8.8555e-15
8040.2080	1.9820e-12	1.1020e-14
8041.4580	1.9813e-12	9.5250e-15
8042.7080	1.9707e-12	9.6339e-15
8043.9580	1.9239e-12	1.0642e-14
8045.2080	1.8974e-12	8.8412e-15
8046.4580	1.9368e-12	7.9059e-15
8047.7080	1.9612e-12	8.3467e-15
8048.9580	1.9557e-12	4.1372e-15
8050.2080	1.9665e-12	5.6482e-15
8051.4580	1.9743e-12	9.0415e-15
8052.7080	1.9662e-12	9.6030e-15
8053.9580	1.9632e-12	7.5077e-15
8055.2080	1.9632e-12	9.3975e-15
8056.4580	1.9602e-12	1.0592e-14
8057.7080	1.9557e-12	1.0424e-14
8058.9580	1.9544e-12	8.6579e-15
8060.2080	1.9596e-12	7.7525e-15
8061.4580	1.9613e-12	6.1255e-15
8062.7080	1.9636e-12	9.5656e-15
8063.9580	1.9627e-12	9.3559e-15
8065.2080	1.9611e-12	8.2410e-15
8066.4580	1.9603e-12	9.2369e-15
8067.7080	1.9546e-12	1.0256e-14
8068.9580	1.9448e-12	9.9800e-15
8070.2080	1.9422e-12	8.5686e-15
8071.4580	1.9488e-12	1.0112e-14
8072.7080	1.9476e-12	8.4503e-15
8073.9580	1.9501e-12	1.1440e-14
8075.2080	1.9517e-12	8.5243e-15
8076.4580	1.9540e-12	1.1453e-14
8077.7080	1.9530e-12	9.2167e-15
8078.9580	1.9482e-12	1.0385e-14
8080.2080	1.9491e-12	7.1261e-15
8081.4580	1.9485e-12	1.0248e-14
8082.7080	1.9202e-12	1.1541e-14
8083.9580	1.8823e-12	8.1750e-15
8085.2080	1.9091e-12	8.7269e-15
8086.4580	1.9445e-12	7.9998e-15
8087.7080	1.9472e-12	1.0541e-14
8088.9580	1.9463e-12	8.3531e-15
8090.2080	1.9315e-12	1.0670e-14
8091.4580	1.9022e-12	9.7767e-15
8092.7080	1.9069e-12	9.1031e-15
8093.9580	1.9304e-12	9.8362e-15
8095.2080	1.9336e-12	1.1045e-14
8096.4580	1.9273e-12	7.9308e-15
8097.7080	1.9202e-12	9.7019e-15
8098.9580	1.9277e-12	9.4478e-15
8100.2080	1.9387e-12	1.0795e-14
8101.4580	1.9369e-12	8.1634e-15
8102.7080	1.9370e-12	7.7763e-15
8103.9580	1.9370e-12	8.5034e-15
8105.2080	1.9321e-12	9.8800e-15
8106.4580	1.9313e-12	9.8180e-15
8107.7080	1.9297e-12	9.8864e-15
8108.9580	1.9245e-12	1.0265e-14
8110.2080	1.9286e-12	9.5120e-15
8111.4580	1.9313e-12	9.8941e-15
8112.7080	1.9304e-12	1.0108e-14
8113.9580	1.9258e-12	9.2637e-15
8115.2080	1.9240e-12	8.9039e-15
8116.4580	1.9258e-12	9.0071e-15
8117.7080	1.9299e-12	8.6313e-15
8118.9580	1.9248e-12	9.8786e-15
8120.2080	1.9217e-12	9.2276e-15
8121.4580	1.9171e-12	9.1794e-15
8122.7080	1.9157e-12	7.8583e-15
8123.9580	1.9189e-12	1.1227e-14
8125.2080	1.9183e-12	9.9685e-15
8126.4580	1.9220e-12	9.7061e-15
8127.7080	1.9218e-12	9.3883e-15
8128.9580	1.9150e-12	1.0129e-14
8130.2080	1.9005e-12	8.1207e-15
8131.4580	1.8994e-12	1.0359e-14
8132.7080	1.9092e-12	8.7160e-15
8133.9580	1.9070e-12	7.0852e-15
8135.2080	1.9039e-12	6.9126e-15
8136.4580	1.9080e-12	8.4454e-15
8137.7080	1.9115e-12	8.5950e-15
8138.9580	1.9127e-12	6.9603e-15
8140.2080	1.9043e-12	8.8634e-15
8141.4580	1.9022e-12	8.6556e-15
8142.7080	1.9113e-12	8.3434e-15
8143.9580	1.9081e-12	8.7220e-15
8145.2080	1.9022e-12	9.7427e-15
8146.4580	1.8881e-12	9.7677e-15
8147.7080	1.8820e-12	8.8353e-15
8148.9580	1.8944e-12	9.3198e-15
8150.2080	1.9049e-12	7.8877e-15
8151.4580	1.9086e-12	7.0950e-15
8152.7080	1.9039e-12	7.8546e-15
8153.9580	1.8893e-12	8.7163e-15
8155.2080	1.8967e-12	8.9574e-15
8156.4580	1.8972e-12	8.8064e-15
8157.7080	1.8882e-12	9.1728e-15
8158.9580	1.9015e-12	7.5173e-15
8160.2080	1.9055e-12	8.0538e-15
8161.4580	1.8880e-12	9.6893e-15
8162.7080	1.8755e-12	8.3430e-15
8163.9580	1.8669e-12	8.4805e-15
8165.2080	1.8881e-12	9.3902e-15
8166.4580	1.8954e-12	8.2268e-15
8167.7080	1.8958e-12	6.9903e-15
8168.9580	1.8826e-12	6.4013e-15
8170.2080	1.8726e-12	9.3713e-15
8171.4580	1.8707e-12	8.0627e-15
8172.7080	1.8846e-12	7.8868e-15
8173.9580	1.8895e-12	8.7992e-15
8175.2080	1.8856e-12	9.2423e-15
8176.4580	1.8629e-12	9.5723e-15
8177.7080	1.8691e-12	9.9119e-15
8178.9580	1.8761e-12	8.3416e-15
8180.2080	1.8440e-12	8.2527e-15
8181.4580	1.7352e-12	6.3785e-15
8182.7080	1.7123e-12	6.8901e-15
8183.9580	1.8056e-12	7.4341e-15
8185.2080	1.8467e-12	7.5829e-15
8186.4580	1.8369e-12	7.7861e-15
8187.7080	1.8334e-12	9.4302e-15
8188.9580	1.8443e-12	8.7333e-15
8190.2080	1.8793e-12	9.5915e-15
8191.4580	1.8653e-12	7.3633e-15
8192.7090	1.7320e-12	6.9809e-15
8193.9590	1.6770e-12	6.7091e-15
8195.2090	1.7980e-12	9.5572e-15
8196.4590	1.8567e-12	1.0142e-14
8197.7090	1.8296e-12	1.1054e-14
8198.9590	1.7908e-12	8.7403e-15
8200.2090	1.7491e-12	6.7176e-15
8201.4590	1.7830e-12	7.7921e-15
8202.7090	1.8593e-12	8.4676e-15
8203.9590	1.8711e-12	7.3480e-15
8205.2090	1.8627e-12	7.5381e-15
8206.4590	1.8492e-12	8.7027e-15
8207.7090	1.8505e-12	8.8604e-15
8208.9590	1.8456e-12	8.9686e-15
8210.2090	1.8316e-12	8.3213e-15
8211.4590	1.7994e-12	8.8702e-15
8212.7090	1.7860e-12	8.3851e-15
8213.9590	1.7840e-12	1.0515e-14
8215.2090	1.7784e-12	8.0699e-15
8216.4590	1.8150e-12	7.3600e-15
8217.7090	1.8061e-12	8.6594e-15
8218.9590	1.7436e-12	8.6024e-15
8220.2090	1.7604e-12	8.3381e-15
8221.4590	1.8052e-12	8.0880e-15
8222.7090	1.8223e-12	7.0088e-15
8223.9590	1.8463e-12	7.6143e-15
8225.2090	1.8414e-12	6.9581e-15
8226.4590	1.8202e-12	7.4277e-15
8227.7090	1.8028e-12	9.2020e-15
8228.9590	1.8281e-12	8.2193e-15
8230.2090	1.8215e-12	7.9591e-15
8231.4590	1.8002e-12	9.9733e-15
8232.7090	1.7901e-12	5.9276e-15
8233.9590	1.8033e-12	6.0386e-15
8235.2090	1.8253e-12	6.5325e-15
8236.4590	1.8444e-12	7.2291e-15
8237.7090	1.8420e-12	8.1388e-15
8238.9590	1.8431e-12	9.4120e-15
8240.2090	1.8220e-12	8.0789e-15
8241.4590	1.8061e-12	8.2400e-15
8242.7090	1.8197e-12	7.8569e-15
8243.9590	1.8400e-12	1.0503e-14
8245.2090	1.8325e-12	7.6087e-15
8246.4590	1.7559e-12	7.6576e-15
8247.7090	1.6840e-12	7.8079e-15
8248.9590	1.7516e-12	8.5083e-15
8250.2090	1.8294e-12	6.0657e-15
8251.4590	1.8345e-12	7.5044e-15
8252.7090	1.8056e-12	8.3916e-15
8253.9590	1.7904e-12	7.7192e-15
8255.2090	1.8187e-12	7.4234e-15
8256.4590	1.8273e-12	1.2846e-14
8257.7090	1.8187e-12	6.7326e-15
8258.9590	1.8260e-12	7.5896e-15
8260.2090	1.8299e-12	7.9030e-15
8261.4590	1.8282e-12	6.4973e-15
8262.7090	1.8121e-12	7.3182e-15
8263.9590	1.8123e-12	9.2871e-15
8265.2090	1.8268e-12	7.5248e-15
8266.4590	1.8313e-12	8.2522e-15
8267.7090	1.8283e-12	9.5643e-15
8268.9590	1.8270e-12	7.8615e-15
8270.2090	1.8269e-12	6.6678e-15
8271.4590	1.8227e-12	7.8081e-15
8272.7090	1.8121e-12	9.4135e-15
8273.9590	1.7946e-12	8.7479e-15
8275.2090	1.8132e-12	9.9477e-15
8276.4590	1.8193e-12	8.0789e-15
8277.7090	1.8193e-12	6.7654e-15
8278.9590	1.8194e-12	6.1604e-15
8280.2090	1.8209e-12	8.7353e-15
8281.4590	1.8088e-12	8.0869e-15
8282.7090	1.8175e-12	9.2495e-15
8283.9590	1.8181e-12	6.9923e-15
8285.2090	1.8021e-12	7.4449e-15
8286.4590	1.7702e-12	9.7730e-15
8287.7090	1.7643e-12	1.3066e-14
8288.9590	1.8013e-12	5.6908e-15
8290.2090	1.8201e-12	8.2936e-15
8291.4590	1.8084e-12	8.6601e-15
8292.7090	1.8013e-12	1.0628e-14
8293.9590	1.7971e-12	9.8415e-15
8295.2090	1.8059e-12	5.4382e-15
8296.4590	1.8090e-12	5.6970e-15
8297.7090	1.8089e-12	6.4317e-15
8298.9590	1.8096e-12	1.0985e-14
8300.2090	1.8010e-12	1.0699e-14
8301.4590	1.8044e-12	7.8694e-15
8302.7090	1.8060e-12	6.6132e-15
8303.9590	1.7924e-12	7.5595e-15
8305.2090	1.7876e-12	7.1089e-15
8306.4590	1.7890e-12	6.5665e-15
8307.7090	1.7973e-12	8.0403e-15
8308.9590	1.7923e-12	8.2214e-15
8310.2090	1.7936e-12	7.5273e-15
8311.4590	1.7976e-12	9.1895e-15
8312.7090	1.8026e-12	8.6493e-15
8313.9590	1.8024e-12	6.8706e-15
8315.2090	1.8009e-12	8.0574e-15
8316.4590	1.7977e-12	8.8222e-15
8317.7090	1.7873e-12	9.6086e-15
8318.9590	1.7990e-12	9.7101e-15
8320.2090	1.7991e-12	1.0666e-14
8321.4590	1.7861e-12	8.4297e-15
8322.7090	1.7819e-12	7.3307e-15
8323.9590	1.7733e-12	7.1993e-15
8325.2090	1.7169e-12	6.2716e-15
8326.4590	1.7072e-12	8.3409e-15
8327.7090	1.7630e-12	8.8448e-15
8328.9590	1.7661e-12	9.3358e-15
8330.2090	1.7276e-12	8.7979e-15
8331.4590	1.7260e-12	8.5405e-15
8332.7090	1.7099e-12	9.0422e-15
8333.9590	1.6625e-12	6.9102e-15
8335.2090	1.7123e-12	8.5829e-15
8336.4590	1.7710e-12	1.0394e-14
8337.7090	1.7548e-12	7.7066e-15
8338.9590	1.7495e-12	7.4596e-15
8340.2090	1.7743e-12	8.5206e-15
8341.4590	1.7817e-12	8.2590e-15
8342.7090	1.7772e-12	7.8119e-15
8343.9590	1.7642e-12	8.7518e-15
8345.2090	1.7564e-12	7.5473e-15
8346.4590	1.7729e-12	7.3136e-15
8347.7090	1.7845e-12	8.5804e-15
8348.9590	1.7853e-12	6.6690e-15
8350.2090	1.7896e-12	8.8944e-15
8351.4590	1.7890e-12	8.3015e-15
8352.7090	1.7867e-12	9.0097e-15
8353.9590	1.7837e-12	7.5287e-15
8355.2090	1.7714e-12	1.0111e-14
8356.4590	1.7632e-12	6.7620e-15
8357.7090	1.7673e-12	7.5976e-15
8358.9590	1.7650e-12	7.4898e-15
8360.2090	1.7645e-12	7.5829e-15
8361.4590	1.7792e-12	7.0458e-15
8362.7090	1.7832e-12	7.3505e-15
8363.9590	1.7743e-12	6.9868e-15
8365.2090	1.7742e-12	8.1036e-15
8366.4590	1.7789e-12	9.9928e-15
8367.7090	1.7804e-12	1.0491e-14
8368.9590	1.7783e-12	8.2255e-15
8370.2090	1.7736e-12	8.2768e-15
8371.4590	1.7647e-12	9.0198e-15
8372.7090	1.7571e-12	7.8747e-15
8373.9590	1.7496e-12	8.3719e-15
8375.2090	1.7503e-12	9.2682e-15
8376.4590	1.7632e-12	8.3776e-15
8377.7090	1.7721e-12	8.7903e-15
8378.9590	1.7793e-12	7.9885e-15
8380.2090	1.7821e-12	7.8775e-15
8381.4590	1.7840e-12	6.8025e-15
8382.7090	1.7820e-12	8.6204e-15
8383.9590	1.7733e-12	8.1387e-15
8385.2090	1.7320e-12	6.7311e-15
8386.4590	1.6722e-12	7.8450e-15
8387.7090	1.6957e-12	8.3196e-15
8388.9590	1.7449e-12	7.0199e-15
8390.2090	1.7456e-12	9.0419e-15
8391.4590	1.7411e-12	8.2309e-15
8392.7090	1.7469e-12	6.6503e-15
8393.9590	1.7521e-12	7.4922e-15
8395.2090	1.7606e-12	8.4620e-15
8396.4590	1.7701e-12	9.4150e-15
8397.7090	1.7743e-12	1.0036e-14
8398.9590	1.7783e-12	9.5211e-15
8400.2090	1.7787e-12	9.3104e-15
8401.4590	1.7760e-12	8.1882e-15
8402.7090	1.7692e-12	1.0031e-14
8403.9590	1.7664e-12	9.5587e-15
8405.2090	1.7646e-12	7.0852e-15
8406.4590	1.7591e-12	8.1724e-15
8407.7090	1.7515e-12	7.7814e-15
8408.9590	1.7408e-12	7.6752e-15
8410.2090	1.7319e-12	9.0970e-15
8411.4590	1.7206e-12	8.0572e-15
8412.7090	1.7193e-12	7.5315e-15
8413.9590	1.7247e-12	9.6823e-15
8415.2090	1.7331e-12	8.6910e-15
8416.4590	1.7449e-12	7.1157e-15
8417.7090	1.7491e-12	8.2032e-15
8418.9590	1.7546e-12	8.8464e-15
8420.2090	1.7614e-12	9.6326e-15
8421.4590	1.7612e-12	8.2627e-15
8422.7090	1.7525e-12	9.3362e-15
8423.9590	1.7605e-12	1.0232e-14
8425.2090	1.7693e-12	8.7239e-15
8426.4590	1.7677e-12	8.5678e-15
8427.7090	1.7641e-12	7.4741e-15
8428.9590	1.7626e-12	9.1277e-15
8430.2090	1.7571e-12	8.2894e-15
8431.4590	1.7471e-12	1.0675e-14
8432.7090	1.7278e-12	7.2540e-15
8433.9590	1.7075e-12	6.6948e-15
8435.2090	1.6949e-12	6.9984e-15
8436.4590	1.6802e-12	8.8134e-15
8437.7090	1.6686e-12	8.2319e-15
8438.9590	1.6854e-12	7.5049e-15
8440.2090	1.7177e-12	8.9789e-15
8441.4590	1.7353e-12	1.1027e-14
8442.7090	1.7296e-12	1.0284e-14
8443.9590	1.6377e-12	6.6323e-15
8445.2090	1.5146e-12	6.1464e-15
8446.4590	1.6018e-12	9.2427e-15
8447.7090	1.7390e-12	1.1935e-14
8448.9590	1.7556e-12	8.9200e-15
8450.2090	1.7487e-12	8.4108e-15
8451.4590	1.7566e-12	9.3215e-15
8452.7090	1.7660e-12	8.3794e-15
8453.9590	1.7698e-12	9.5562e-15
8455.2090	1.7646e-12	9.0329e-15
8456.4590	1.7604e-12	8.7837e-15
8457.7090	1.7513e-12	9.6384e-15
8458.9590	1.7430e-12	1.0539e-14
8460.2090	1.7313e-12	8.2150e-15
8461.4590	1.7148e-12	7.6298e-15
8462.7090	1.6932e-12	6.9337e-15
8463.9590	1.6705e-12	9.4922e-15
8465.2090	1.6424e-12	8.1562e-15
8466.4590	1.6045e-12	8.7201e-15
8467.7090	1.6023e-12	8.8818e-15
8468.9590	1.6569e-12	8.2259e-15
8470.2090	1.6934e-12	8.0244e-15
8471.4590	1.7138e-12	7.0906e-15
8472.7090	1.7333e-12	6.9893e-15
8473.9590	1.7455e-12	8.0528e-15
8475.2090	1.7551e-12	9.0574e-15
8476.4590	1.7609e-12	7.8751e-15
8477.7090	1.7673e-12	7.7147e-15
8478.9590	1.7702e-12	7.0729e-15
8480.2090	1.7701e-12	8.2515e-15
8481.4590	1.7664e-12	1.0620e-14
8482.7090	1.7687e-12	9.2338e-15
8483.9590	1.7713e-12	7.9686e-15
8485.2090	1.7678e-12	7.8411e-15
8486.4590	1.7635e-12	7.7350e-15
8487.7090	1.7542e-12	9.7775e-15
8488.9590	1.7418e-12	8.1552e-15
8490.2090	1.7382e-12	8.5145e-15
8491.4590	1.7356e-12	8.1641e-15
8492.7090	1.7241e-12	8.4384e-15
8493.9590	1.6967e-12	8.4874e-15
8495.2090	1.5685e-12	7.4892e-15
8496.4590	1.3485e-12	7.0723e-15
8497.7090	1.3635e-12	8.6275e-15
8498.9590	1.5309e-12	6.3941e-15
8500.2090	1.5562e-12	7.5003e-15
8501.4590	1.5530e-12	8.7593e-15
8502.7090	1.5883e-12	9.3421e-15
8503.9590	1.6283e-12	8.6897e-15
8505.2090	1.6629e-12	8.1889e-15
8506.4590	1.6848e-12	8.6502e-15
8507.7090	1.6973e-12	9.1235e-15
8508.9590	1.7131e-12	9.7444e-15
8510.2090	1.7238e-12	8.6341e-15
8511.4590	1.7204e-12	9.4504e-15
8512.7090	1.6934e-12	8.1389e-15
8513.9590	1.7006e-12	9.2198e-15
8515.2090	1.7368e-12	8.2902e-15
8516.4590	1.7578e-12	8.9736e-15
8517.7090	1.7673e-12	8.8751e-15
8518.9590	1.7717e-12	9.4710e-15
8520.2090	1.7733e-12	9.6965e-15
8521.4590	1.7714e-12	9.3913e-15
8522.7090	1.7705e-12	9.5147e-15
8523.9590	1.7525e-12	9.3295e-15
8525.2090	1.7365e-12	9.2109e-15
8526.4590	1.7418e-12	9.5997e-15
8527.7090	1.7547e-12	7.6196e-15
8528.9590	1.7534e-12	8.6989e-15
8530.2090	1.7459e-12	7.5822e-15
8531.4590	1.7361e-12	9.3594e-15
8532.7090	1.7237e-12	7.5033e-15
8533.9590	1.6925e-12	8.2436e-15
8535.2090	1.6611e-12	7.7828e-15
8536.4590	1.6394e-12	1.1554e-14
8537.7090	1.5915e-12	8.0661e-15
8538.9590	1.4348e-12	9.2521e-15
8540.2090	1.1434e-12	6.2402e-15
8541.4590	1.0605e-12	3.8448e-15
8542.7090	1.2842e-12	6.6357e-15
8543.9590	1.4318e-12	6.2217e-15
8545.2090	1.4862e-12	5.9170e-15
8546.4590	1.5407e-12	6.7300e-15
8547.7090	1.5880e-12	6.5873e-15
8548.9590	1.6239e-12	6.9820e-15
8550.2090	1.6522e-12	8.0935e-15
8551.4590	1.6740e-12	8.3936e-15
8552.7090	1.6869e-12	8.4215e-15
8553.9590	1.6808e-12	7.0126e-15
8555.2090	1.6509e-12	8.4200e-15
8556.4590	1.6696e-12	9.0872e-15
8557.7090	1.7187e-12	1.0970e-14
8558.9590	1.7401e-12	1.0048e-14
8560.2090	1.7448e-12	8.9718e-15
8561.4590	1.7501e-12	8.5763e-15
8562.7090	1.7558e-12	8.0890e-15
8563.9590	1.7600e-12	1.0234e-14
8565.2090	1.7546e-12	9.8977e-15
8566.4590	1.7489e-12	8.6573e-15
8567.7090	1.7582e-12	8.8955e-15
8568.9590	1.7609e-12	9.2858e-15
8570.2090	1.7543e-12	7.4894e-15
8571.4590	1.7546e-12	9.6167e-15
8572.7090	1.7591e-12	9.3943e-15
8573.9590	1.7522e-12	9.2360e-15
8575.2090	1.7520e-12	9.1420e-15
8576.4590	1.7559e-12	8.2774e-15
8577.7090	1.7505e-12	8.3048e-15
8578.9590	1.7423e-12	7.7464e-15
8580.2090	1.7270e-12	7.5520e-15
8581.4590	1.7118e-12	7.9779e-15
8582.7090	1.6962e-12	7.9520e-15
8583.9590	1.6551e-12	7.3703e-15
8585.2090	1.6459e-12	8.6684e-15
8586.4590	1.6724e-12	6.7740e-15
8587.7090	1.6713e-12	9.3397e-15
8588.9590	1.6524e-12	9.4791e-15
8590.2090	1.6232e-12	8.5956e-15
8591.4590	1.5832e-12	8.1904e-15
8592.7090	1.5407e-12	8.1023e-15
8593.9590	1.5019e-12	8.3336e-15
8595.2090	1.4535e-12	6.6231e-15
8596.4590	1.4027e-12	7.1561e-15
8597.7090	1.3994e-12	8.6374e-15
8598.9590	1.4493e-12	8.5560e-15
8600.2090	1.5080e-12	7.8054e-15
8601.4590	1.5561e-12	8.4414e-15
8602.7090	1.5908e-12	8.7056e-15
8603.9590	1.6151e-12	9.7359e-15
8605.2090	1.6344e-12	8.6890e-15
8606.4590	1.6532e-12	7.9047e-15
8607.7090	1.6745e-12	9.3224e-15
8608.9590	1.6807e-12	1.0440e-14
8610.2090	1.6720e-12	8.5697e-15
8611.4590	1.6838e-12	7.8083e-15
8612.7090	1.7113e-12	8.6105e-15
8613.9590	1.7199e-12	8.5068e-15
8615.2090	1.7149e-12	7.6760e-15
8616.4590	1.7249e-12	8.2415e-15
8617.7090	1.7432e-12	6.9828e-15
8618.9590	1.7467e-12	7.4680e-15
8620.2090	1.7374e-12	8.8067e-15
8621.4590	1.7427e-12	8.0607e-15
8622.7090	1.7571e-12	9.4138e-15
8623.9590	1.7625e-12	1.0763e-14
8625.2090	1.7573e-12	8.3208e-15
8626.4590	1.7461e-12	9.6911e-15
8627.7090	1.7240e-12	7.9735e-15
8628.9590	1.7352e-12	8.7104e-15
8630.2090	1.7572e-12	1.0537e-14
8631.4590	1.7433e-12	1.1139e-14
8632.7090	1.7428e-12	7.1897e-15
8633.9590	1.7569e-12	8.2857e-15
8635.2090	1.7601e-12	9.0729e-15
8636.4590	1.7552e-12	8.3197e-15
8637.7090	1.7535e-12	7.6797e-15
8638.9590	1.7489e-12	9.6978e-15
8640.2090	1.7432e-12	9.8857e-15
8641.4590	1.7382e-12	8.2492e-15
8642.7090	1.7343e-12	8.4958e-15
8643.9590	1.7245e-12	8.4704e-15
8645.2090	1.7011e-12	8.9600e-15
8646.4590	1.6465e-12	1.0272e-14
8647.7090	1.6174e-12	9.7800e-15
8648.9590	1.6547e-12	1.0505e-14
8650.2090	1.6739e-12	9.0986e-15
8651.4590	1.6606e-12	8.9490e-15
8652.7090	1.6385e-12	9.5389e-15
8653.9590	1.6081e-12	8.5356e-15
8655.2090	1.5856e-12	6.1468e-15
8656.4590	1.5637e-12	8.7021e-15
8657.7090	1.5174e-12	9.0919e-15
8658.9590	1.3949e-12	8.5826e-15
8660.2090	1.1546e-12	6.6745e-15
8661.4590	1.0476e-12	7.5692e-15
8662.7090	1.1724e-12	6.7148e-15
8663.9590	1.2693e-12	6.8646e-15
8665.2090	1.3281e-12	6.8754e-15
8666.4590	1.3898e-12	7.0379e-15
8667.7090	1.4351e-12	8.0621e-15
8668.9590	1.4625e-12	7.5116e-15
8670.2090	1.4998e-12	8.1585e-15
8671.4590	1.5512e-12	7.0525e-15
8672.7090	1.5742e-12	1.0366e-14
8673.9590	1.5881e-12	9.2312e-15
8675.2090	1.6213e-12	7.7841e-15
8676.4590	1.6352e-12	7.1647e-15
8677.7090	1.5721e-12	8.0357e-15
8678.9590	1.5242e-12	7.7243e-15
8680.2090	1.5895e-12	8.6390e-15
8681.4590	1.6370e-12	8.5326e-15
8682.7090	1.6465e-12	8.6597e-15
8683.9590	1.6640e-12	9.8792e-15
8685.2090	1.6519e-12	9.2077e-15
8686.4590	1.6083e-12	8.1356e-15
8687.7090	1.5957e-12	9.3315e-15
8688.9590	1.6823e-12	9.7703e-15
8690.2090	1.7338e-12	9.7160e-15
8691.4590	1.7066e-12	9.5150e-15
8692.7090	1.6366e-12	9.7541e-15
8693.9590	1.6452e-12	1.0153e-14
8695.2090	1.7279e-12	1.2640e-14
8696.4590	1.7503e-12	9.8090e-15
8697.7090	1.7366e-12	8.7902e-15
8698.9590	1.7341e-12	1.0958e-14
8700.2090	1.7424e-12	1.1461e-14
8701.4590	1.7152e-12	8.4292e-15
8702.7090	1.7079e-12	9.1245e-15
8703.9590	1.7393e-12	8.7992e-15
8705.2090	1.7517e-12	8.7020e-15
8706.4590	1.7569e-12	8.7116e-15
8707.7090	1.7446e-12	1.2016e-14
8708.9590	1.6978e-12	1.0058e-14
8710.2090	1.6648e-12	8.0475e-15
8711.4590	1.6877e-12	8.2742e-15
8712.7090	1.7262e-12	8.0041e-15
8713.9590	1.7409e-12	9.3344e-15
8715.2090	1.7379e-12	9.0985e-15
8716.4590	1.7051e-12	9.9331e-15
8717.7090	1.6853e-12	6.3324e-15
8718.9590	1.7140e-12	1.0987e-14
8720.2090	1.7291e-12	9.2194e-15
8721.4590	1.7277e-12	8.7682e-15
8722.7090	1.7254e-12	1.1307e-14
8723.9590	1.7192e-12	9.8554e-15
8725.2090	1.6994e-12	9.3966e-15
8726.4590	1.6511e-12	8.5009e-15
8727.7090	1.6408e-12	9.7907e-15
8728.9590	1.6721e-12	1.0004e-14
8730.2090	1.6799e-12	9.4633e-15
8731.4590	1.6709e-12	9.1785e-15
8732.7090	1.6558e-12	9.5785e-15
8733.9590	1.6162e-12	1.0657e-14
8735.2090	1.5867e-12	1.1000e-14
8736.4590	1.5921e-12	9.1345e-15
8737.7090	1.5959e-12	8.4439e-15
8738.9590	1.5764e-12	9.5844e-15
8740.2090	1.5318e-12	8.4582e-15
8741.4590	1.4897e-12	7.3933e-15
8742.7090	1.4801e-12	5.8044e-15
8743.9590	1.4591e-12	6.1078e-15
8745.2090	1.4159e-12	9.3366e-15
8746.4590	1.3534e-12	8.7881e-15
8747.7090	1.2716e-12	7.7898e-15
8748.9590	1.2026e-12	7.8926e-15
8750.2090	1.2056e-12	7.0926e-15
8751.4590	1.2810e-12	8.7326e-15
8752.7090	1.3685e-12	8.6122e-15
8753.9590	1.4275e-12	1.0299e-14
8755.2090	1.4595e-12	9.2387e-15
8756.4590	1.4930e-12	8.2532e-15
8757.7090	1.5321e-12	9.6060e-15
8758.9590	1.5609e-12	9.0588e-15
8760.2090	1.5785e-12	7.0921e-15
8761.4590	1.5780e-12	7.6528e-15
8762.7090	1.5707e-12	8.5030e-15
8763.9590	1.5998e-12	9.7043e-15
8765.2090	1.6324e-12	1.0781e-14
8766.4590	1.6502e-12	1.1173e-14
8767.7090	1.6580e-12	1.1269e-14
8768.9590	1.6655e-12	8.9724e-15
8770.2090	1.6568e-12	7.9599e-15
8771.4590	1.6259e-12	8.6720e-15
8772.7090	1.6239e-12	9.9201e-15
8773.9590	1.6691e-12	9.0876e-15
8775.2090	1.7007e-12	1.0180e-14
8776.4590	1.7091e-12	9.4937e-15
8777.7090	1.7091e-12	8.0686e-15
8778.9590	1.7043e-12	7.6235e-15
8780.2090	1.7111e-12	8.7300e-15
8781.4590	1.7164e-12	9.7026e-15
8782.7090	1.7162e-12	9.3508e-15
8783.9590	1.7202e-12	1.0784e-14
8785.2090	1.7276e-12	8.3073e-15
8786.4590	1.7299e-12	9.2548e-15
8787.7090	1.7068e-12	9.0565e-15
8788.9590	1.6679e-12	9.3592e-15
8790.2090	1.6690e-12	9.6061e-15
8791.4590	1.6700e-12	1.2418e-14
8792.7090	1.6734e-12	1.1566e-14
8793.9590	1.7148e-12	1.0029e-14
8795.2090	1.7264e-12	6.6621e-15
8796.4590	1.7288e-12	6.5573e-15
8797.7090	1.7359e-12	9.9252e-15
8798.9590	1.7393e-12	8.3423e-15
8800.2090	1.7398e-12	8.2598e-15
8801.4590	1.7349e-12	8.2434e-15
8802.7090	1.7228e-12	1.0063e-14
8803.9590	1.6718e-12	1.3018e-14
8805.2090	1.5682e-12	9.5732e-15
8806.4590	1.5820e-12	1.0556e-14
8807.7090	1.6697e-12	9.9544e-15
8808.9590	1.6998e-12	9.0481e-15
8810.2090	1.7235e-12	1.0895e-14
8811.4590	1.7328e-12	1.0191e-14
8812.7090	1.7300e-12	9.9930e-15
8813.9590	1.7251e-12	1.0038e-14
8815.2090	1.7225e-12	1.0970e-14
8816.4590	1.7203e-12	1.0713e-14
8817.7090	1.7149e-12	9.3977e-15
8818.9590	1.7081e-12	1.1879e-14
8820.2090	1.7088e-12	1.2279e-14
8821.4590	1.6798e-12	9.7063e-15
8822.7090	1.6147e-12	1.1621e-14
8823.9590	1.6269e-12	1.1692e-14
8825.2090	1.6836e-12	9.1707e-15
8826.4590	1.6913e-12	8.3821e-15
8827.7090	1.6942e-12	1.1705e-14
8828.9590	1.6930e-12	9.4691e-15
8830.2090	1.6862e-12	1.0358e-14
8831.4590	1.6753e-12	8.6522e-15
8832.7090	1.6634e-12	5.4994e-15
8833.9590	1.6648e-12	9.2273e-15
8835.2090	1.6518e-12	8.9825e-15
8836.4590	1.6302e-12	8.8767e-15
8837.7090	1.6206e-12	8.9606e-15
8838.9590	1.6314e-12	1.0753e-14
8840.2090	1.6316e-12	1.4144e-14
8841.4590	1.6243e-12	1.1634e-14
8842.7090	1.6117e-12	1.0402e-14
8843.9590	1.5911e-12	9.3807e-15
8845.2090	1.5682e-12	9.4539e-15
8846.4590	1.5596e-12	9.8979e-15
8847.7090	1.5591e-12	1.1034e-14
8848.9590	1.5479e-12	1.0760e-14
8850.2090	1.5314e-12	1.0738e-14
8851.4590	1.5104e-12	8.9203e-15
8852.7090	1.4821e-12	1.0456e-14
8853.9590	1.4550e-12	1.2159e-14
8855.2090	1.4193e-12	1.1492e-14
8856.4590	1.3780e-12	7.9889e-15
8857.7090	1.3261e-12	8.5682e-15
8858.9590	1.2562e-12	9.5400e-15
8860.2090	1.1637e-12	8.8689e-15
8861.4590	1.1018e-12	8.6759e-15
8862.7090	1.1374e-12	8.3616e-15
8863.9590	1.2205e-12	9.5728e-15
8865.2090	1.2732e-12	9.1253e-15
8866.4590	1.3294e-12	9.4797e-15
8867.7090	1.3963e-12	1.1546e-14
8868.9590	1.4399e-12	1.0406e-14
8870.2090	1.4668e-12	1.0484e-14
8871.4590	1.4793e-12	1.0239e-14
8872.7090	1.4774e-12	1.0227e-14
8873.9590	1.4907e-12	9.0124e-15
8875.2090	1.5279e-12	9.2958e-15
8876.4590	1.5537e-12	1.0795e-14
8877.7090	1.5617e-12	1.2607e-14
8878.9590	1.5578e-12	1.2314e-14
8880.2090	1.5574e-12	1.1461e-14
8881.4590	1.5540e-12	1.1180e-14
8882.7090	1.5566e-12	1.2693e-14
8883.9590	1.5879e-12	1.0704e-14
8885.2090	1.6232e-12	1.1226e-14
8886.4590	1.6370e-12	1.2725e-14
8887.7090	1.6416e-12	1.0576e-14
8888.9590	1.6410e-12	1.0654e-14
8890.2090	1.6273e-12	1.0757e-14
8891.4590	1.6193e-12	1.1430e-14
8892.7090	1.6391e-12	1.2065e-14
8893.9590	1.6617e-12	1.2764e-14
8895.2090	1.6657e-12	9.8999e-15
8896.4590	1.6595e-12	9.4958e-15
8897.7090	1.6558e-12	1.1211e-14
8898.9590	1.6627e-12	1.2499e-14
8900.2090	1.6756e-12	8.8282e-15
8901.4590	1.6791e-12	1.2788e-14
8902.7090	1.6754e-12	1.2019e-14
8903.9590	1.6727e-12	1.1878e-14
8905.2090	1.6784e-12	1.1288e-14
8906.4590	1.6856e-12	1.0481e-14
8907.7090	1.6863e-12	1.3067e-14
8908.9590	1.6449e-12	9.2746e-15
8910.2090	1.5280e-12	1.1315e-14
8911.4590	1.5097e-12	1.4516e-14
8912.7090	1.6299e-12	1.3167e-14
8913.9590	1.6882e-12	1.2693e-14
8915.2090	1.6882e-12	1.3188e-14
8916.4590	1.6808e-12	1.1629e-14
8917.7090	1.6654e-12	9.5665e-15
8918.9590	1.6662e-12	1.0512e-14
8920.2090	1.6836e-12	1.4289e-14
8921.4590	1.6845e-12	1.1572e-14
8922.7090	1.6757e-12	1.1850e-14
8923.9590	1.6403e-12	1.3506e-14
8925.2090	1.5147e-12	1.0596e-14
8926.4590	1.4586e-12	1.0511e-14
8927.7090	1.5818e-12	1.3321e-14
8928.9590	1.6698e-12	1.1300e-14
8930.2090	1.6877e-12	1.2049e-14
8931.4590	1.6918e-12	1.2967e-14
8932.7090	1.6947e-12	1.2378e-14
8933.9590	1.6918e-12	1.1809e-14
8935.2090	1.6918e-12	1.2032e-14
8936.4590	1.6913e-12	1.2227e-14
8937.7090	1.6929e-12	1.0706e-14
8938.9590	1.6894e-12	1.2276e-14
8940.2090	1.6844e-12	1.3432e-14
8941.4590	1.6777e-12	1.0302e-14
8942.7090	1.6655e-12	1.0690e-14
8943.9590	1.6411e-12	1.1773e-14
8945.2090	1.6472e-12	1.1272e-14
8946.4590	1.6552e-12	1.2497e-14
8947.7090	1.6568e-12	1.1680e-14
8948.9590	1.6710e-12	1.2616e-14
8950.2090	1.6809e-12	1.4762e-14
8951.4590	1.6800e-12	1.3200e-14
8952.7090	1.6771e-12	1.4678e-14
8953.9590	1.6676e-12	1.3296e-14
8955.2090	1.6705e-12	1.2928e-14
8956.4590	1.6762e-12	1.5128e-14
8957.7090	1.6776e-12	1.5093e-14
8958.9590	1.6735e-12	1.4187e-14
8960.2090	1.6681e-12	1.3420e-14
8961.4590	1.6650e-12	1.3876e-14
8962.7090	1.6531e-12	1.5269e-14
8963.9590	1.6395e-12	1.6137e-14
8965.2090	1.6239e-12	1.5713e-14
8966.4590	1.6282e-12	1.2236e-14
8967.7090	1.6445e-12	1.4479e-14
8968.9590	1.6547e-12	1.3595e-14
8970.2090	1.6438e-12	1.0988e-14
8971.4590	1.6278e-12	1.5052e-14
8972.7090	1.6353e-12	1.7740e-14
8973.9590	1.6319e-12	1.3834e-14
8975.2090	1.6291e-12	1.4099e-14
8976.4590	1.6248e-12	1.3506e-14
8977.7090	1.6176e-12	1.1183e-14
8978.9590	1.6135e-12	1.2324e-14
8980.2090	1.6032e-12	1.3101e-14
8981.4590	1.6306e-12	1.4232e-14
8982.7090	1.6283e-12	1.1907e-14
8983.9590	1.6153e-12	1.0938e-14
8985.2090	1.6026e-12	1.2582e-14
8986.4590	1.5773e-12	2.1628e-14
8987.7090	1.5676e-12	2.2134e-14
8988.9590	1.5662e-12	2.3173e-14
8990.2090	1.5571e-12	1.8704e-14
8991.4590	1.5413e-12	1.3147e-14
8992.7090	1.5726e-12	1.7174e-14
8993.9590	1.5778e-12	1.3554e-14
8995.2090	1.5566e-12	1.1863e-14
8996.4590	1.5288e-12	1.1239e-14
8997.7090	1.4780e-12	1.1135e-14
8998.9590	1.4467e-12	1.3325e-14
9000.2090	1.4456e-12	1.6455e-14
9001.4590	1.4800e-12	1.7402e-14
9002.7090	1.4685e-12	1.2758e-14
9003.9590	1.4248e-12	1.1919e-14
9005.2090	1.4046e-12	1.8572e-14
9006.4590	1.3637e-12	1.3078e-14
9007.7090	1.3172e-12	1.1428e-14
9008.9590	1.2842e-12	1.2455e-14
9010.2090	1.2309e-12	1.1251e-14
9011.4590	1.1433e-12	9.4054e-15
9012.7090	1.0671e-12	6.5237e-15
9013.9590	1.0378e-12	8.9465e-15
9015.2090	1.0877e-12	1.0296e-14
9016.4590	1.1551e-12	1.0330e-14
9017.7090	1.2699e-12	1.4108e-14
9018.9590	1.3342e-12	1.5853e-14
9020.2090	1.3510e-12	9.7845e-15
9021.4590	1.3758e-12	1.3257e-14
9022.7090	1.3943e-12	1.4725e-14
9023.9590	1.4293e-12	1.9053e-14
9025.2090	1.4567e-12	1.3543e-14
9026.4590	1.4808e-12	8.6697e-15
9027.7090	1.5001e-12	1.8682e-14
9028.9590	1.5190e-12	1.4896e-14
9030.2090	1.5317e-12	1.2605e-14
9031.4590	1.5423e-12	1.3253e-14
9032.7090	1.5553e-12	1.5218e-14
9033.9590	1.5503e-12	1.4357e-14
9035.2090	1.5402e-12	1.3298e-14
9036.4590	1.5582e-12	1.2163e-14
9037.7090	1.5736e-12	1.1204e-14
9038.9590	1.5893e-12	1.1953e-14
9040.2090	1.6024e-12	1.2344e-14
9041.4590	1.6050e-12	1.1765e-14
9042.7090	1.6043e-12	1.3430e-14
9043.9590	1.6111e-12	1.6790e-14
9045.2090	1.6178e-12	1.3094e-14
9046.4590	1.6227e-12	1.2908e-14
9047.7090	1.6189e-12	1.1966e-14
9048.9590	1.6159e-12	1.2623e-14
9050.2090	1.6185e-12	1.2444e-14
9051.4590	1.6237e-12	1.3348e-14
9052.7090	1.6286e-12	1.2637e-14
9053.9590	1.6503e-12	1.5279e-14
9055.2090	1.6578e-12	1.2151e-14
9056.4590	1.6469e-12	1.1756e-14
9057.7090	1.6246e-12	1.1778e-14
9058.9590	1.5182e-12	1.1280e-14
9060.2090	1.3561e-12	1.0962e-14
9061.4590	1.3843e-12	1.3282e-14
9062.7090	1.5567e-12	1.3848e-14
9063.9590	1.6446e-12	1.3384e-14
9065.2090	1.6685e-12	1.4406e-14
9066.4590	1.6686e-12	1.4731e-14
9067.7090	1.6458e-12	1.5157e-14
9068.9590	1.6198e-12	1.4942e-14
9070.2090	1.6457e-12	1.5229e-14
9071.4590	1.6420e-12	1.5252e-14
9072.7090	1.6485e-12	1.3707e-14
9073.9590	1.6327e-12	1.5833e-14
9075.2090	1.6065e-12	1.4103e-14
9076.4590	1.5227e-12	1.1804e-14
9077.7090	1.5020e-12	1.2841e-14
9078.9590	1.5733e-12	1.2242e-14
9080.2090	1.6287e-12	1.5259e-14
9081.4590	1.6514e-12	1.7640e-14
9082.7090	1.6697e-12	2.5149e-14
9083.9590	1.6727e-12	1.8758e-14
9085.2090	1.6301e-12	1.1436e-14
9086.4590	1.5165e-12	9.4183e-15
9087.7090	1.4997e-12	1.2208e-14
9088.9590	1.6002e-12	1.5816e-14
9090.2090	1.6519e-12	1.2608e-14
9091.4590	1.6206e-12	1.0625e-14
9092.7090	1.4774e-12	1.0739e-14
9093.9590	1.4165e-12	1.1032e-14
9095.2090	1.5682e-12	1.6525e-14
9096.4590	1.6651e-12	1.8708e-14
9097.7090	1.6602e-12	1.3629e-14
9098.9590	1.6356e-12	1.0099e-14
9100.2090	1.6311e-12	1.2696e-14
9101.4590	1.6633e-12	2.0508e-14
9102.7090	1.6767e-12	1.9786e-14
9103.9590	1.6595e-12	1.2510e-14
9105.2090	1.6409e-12	1.4644e-14
9106.4590	1.6550e-12	1.2032e-14
9107.7090	1.6604e-12	1.1565e-14
9108.9590	1.6061e-12	1.5210e-14
9110.2090	1.4972e-12	1.5005e-14
9111.4590	1.5231e-12	1.1791e-14
9112.7090	1.6365e-12	9.3514e-15
9113.9590	1.6612e-12	1.4411e-14
9115.2090	1.6449e-12	1.3641e-14
9116.4590	1.6292e-12	1.0935e-14
9117.7090	1.6102e-12	1.9220e-14
9118.9590	1.6131e-12	2.2174e-14
9120.2090	1.6435e-12	2.3810e-14
9121.4590	1.6480e-12	1.9255e-14
9122.7090	1.6469e-12	1.0951e-14
9123.9590	1.6603e-12	1.0846e-14
9125.2090	1.6624e-12	1.2243e-14
9126.4590	1.6576e-12	1.1094e-14
9127.7090	1.6470e-12	1.1253e-14
9128.9590	1.6372e-12	1.1373e-14
9130.2090	1.6134e-12	9.9061e-15
9131.4590	1.6336e-12	1.6734e-14
9132.7090	1.6555e-12	1.6030e-14
9133.9590	1.6465e-12	1.4375e-14
9135.2090	1.6322e-12	1.1529e-14
9136.4590	1.6213e-12	1.1987e-14
9137.7090	1.6593e-12	2.1450e-14
9138.9590	1.6706e-12	2.3274e-14
9140.2090	1.6589e-12	1.4249e-14
9141.4590	1.6609e-12	1.2119e-14
9142.7090	1.6550e-12	1.2612e-14
9143.9590	1.6478e-12	9.6028e-15
9145.2090	1.6435e-12	1.0254e-14
9146.4590	1.6389e-12	1.1624e-14
9147.7090	1.6411e-12	1.0979e-14
9148.9590	1.6487e-12	9.7762e-15
9150.2090	1.6460e-12	1.1031e-14
9151.4590	1.6306e-12	1.1133e-14
9152.7090	1.6182e-12	1.3755e-14
9153.9590	1.6185e-12	1.5028e-14
9155.2090	1.5976e-12	1.2325e-14
9156.4590	1.6331e-12	1.2190e-14
9157.7090	1.6541e-12	1.6270e-14
9158.9590	1.6447e-12	1.2401e-14
9160.2090	1.6356e-12	1.1315e-14
9161.4590	1.6318e-12	1.2499e-14
9162.7090	1.6242e-12	1.3369e-14
9163.9590	1.6237e-12	1.3881e-14
9165.2090	1.6337e-12	1.2122e-14
9166.4590	1.6321e-12	1.0132e-14
9167.7090	1.6222e-12	1.0484e-14
9168.9590	1.6226e-12	9.6351e-15
9170.2090	1.6113e-12	1.2592e-14
9171.4590	1.6050e-12	9.7496e-15
9172.7090	1.5897e-12	1.1712e-14
9173.9590	1.5572e-12	1.2627e-14
9175.2090	1.5698e-12	1.3573e-14
9176.4590	1.5857e-12	1.9741e-14
9177.7090	1.5890e-12	1.3084e-14
9178.9590	1.5968e-12	1.3537e-14
9180.2090	1.6039e-12	1.2777e-14
9181.4590	1.6039e-12	1.1238e-14
9182.7090	1.6011e-12	1.2615e-14
9183.9590	1.5901e-12	9.9141e-15
9185.2090	1.5798e-12	9.6562e-15
9186.4590	1.5782e-12	1.3509e-14
9187.7090	1.5896e-12	1.6427e-14
9188.9590	1.5904e-12	1.2896e-14
9190.2090	1.5835e-12	1.0761e-14
9191.4590	1.5796e-12	1.4470e-14
9192.7090	1.5792e-12	9.4906e-15
9193.9590	1.5694e-12	1.1591e-14
9195.2090	1.5516e-12	8.3549e-15
9196.4590	1.5601e-12	1.0844e-14
9197.7090	1.5635e-12	1.5032e-14
9198.9590	1.5522e-12	1.3602e-14
9200.2090	1.5424e-12	1.0939e-14
9201.4590	1.5202e-12	1.1872e-14
9202.7090	1.4978e-12	1.3363e-14
9203.9590	1.5026e-12	9.9966e-15
9205.2090	1.5103e-12	1.0128e-14
9206.4590	1.4948e-12	1.1128e-14
9207.7090	1.4835e-12	1.0173e-14
9208.9590	1.4629e-12	9.6597e-15
9210.2090	1.3896e-12	1.2458e-14
9211.4590	1.2832e-12	1.1024e-14
9212.7090	1.3043e-12	9.7583e-15
9213.9590	1.3863e-12	8.7768e-15
9215.2090	1.3676e-12	8.2136e-15
9216.4590	1.2752e-12	8.9453e-15
9217.7090	1.2622e-12	1.0010e-14
9218.9590	1.3200e-12	1.4656e-14
9220.2090	1.3221e-12	1.1505e-14
9221.4590	1.2887e-12	8.9143e-15
9222.7090	1.2465e-12	8.7321e-15
9223.9590	1.1907e-12	8.1924e-15
9225.2090	1.0972e-12	8.3815e-15
9226.4590	9.6575e-13	1.1035e-14
9227.7090	9.1438e-13	8.6466e-15
9228.9590	9.9241e-13	5.7181e-15
9230.2090	1.1020e-12	7.9340e-15
9231.4590	1.1804e-12	8.8849e-15
9232.7090	1.2321e-12	7.9783e-15
9233.9590	1.2558e-12	7.3716e-15
9235.2090	1.2242e-12	8.5432e-15
9236.4590	1.2095e-12	1.0511e-14
9237.7090	1.2887e-12	1.1373e-14
9238.9590	1.3668e-12	1.0675e-14
9240.2090	1.3877e-12	1.1534e-14
9241.4590	1.3677e-12	1.1407e-14
9242.7090	1.3101e-12	7.4326e-15
9243.9590	1.3341e-12	8.9962e-15
9245.2090	1.4151e-12	1.0282e-14
9246.4590	1.4460e-12	1.0930e-14
9247.7090	1.4621e-12	1.5517e-14
9248.9590	1.4627e-12	1.2117e-14
9250.2090	1.4482e-12	9.3365e-15
9251.4590	1.4378e-12	8.5752e-15
9252.7090	1.4405e-12	1.4868e-14
9253.9590	1.4278e-12	1.3316e-14
9255.2090	1.4297e-12	1.1259e-14
9256.4590	1.4499e-12	1.0420e-14
9257.7090	1.4453e-12	9.8657e-15
9258.9590	1.4261e-12	8.6217e-15
9260.2090	1.4026e-12	1.0004e-14
9261.4590	1.4074e-12	1.0786e-14
9262.7090	1.4449e-12	1.2179e-14
9263.9590	1.4366e-12	1.2346e-14
9265.2090	1.4364e-12	9.5923e-15
9266.4590	1.4912e-12	1.1441e-14
9267.7090	1.5211e-12	1.2954e-14
9268.9590	1.5247e-12	9.4765e-15
9270.2090	1.5191e-12	1.1075e-14
9271.4590	1.5200e-12	1.1571e-14
9272.7090	1.5184e-12	1.1607e-14
9273.9590	1.5278e-12	1.0682e-14
9275.2090	1.5325e-12	1.1222e-14
9276.4590	1.5263e-12	1.0686e-14
9277.7090	1.5182e-12	1.3880e-14
9278.9590	1.5034e-12	1.7656e-14
9280.2090	1.5110e-12	1.5142e-14
9281.4590	1.5230e-12	2.4366e-14
9282.7090	1.5186e-12	1.4370e-14
9283.9590	1.5129e-12	1.1734e-14
9285.2090	1.5099e-12	1.4616e-14
9286.4590	1.5111e-12	1.5150e-14
9287.7090	1.5172e-12	1.8299e-14
9288.9590	1.5125e-12	1.2469e-14
9290.2090	1.5149e-12	1.1688e-14
9291.4590	1.5144e-12	1.4102e-14
9292.7090	1.5087e-12	1.4323e-14
9293.9590	1.5001e-12	8.5975e-15
9295.2090	1.4873e-12	1.4412e-14
9296.4590	1.4903e-12	1.6525e-14
9297.7090	1.4963e-12	1.1871e-14
9298.9590	1.5065e-12	1.3532e-14
9300.2090	1.4921e-12	9.6520e-15
9301.4590	1.4990e-12	1.4062e-14
9302.7090	1.4985e-12	1.8739e-14
9303.9590	1.4896e-12	2.0098e-14
9305.2090	1.5021e-12	2.4755e-14
9306.4590	1.4832e-12	1.8368e-14
9307.7090	1.4350e-12	1.0270e-14
9308.9590	1.4526e-12	2.2030e-14
9310.2090	1.5215e-12	1.4249e-14
9311.4590	1.5142e-12	4.1254e-14
9312.7090	1.5022e-12	2.5510e-14
9313.9590	1.4745e-12	1.6834e-14
9315.2090	1.4155e-12	4.4118e-14
9316.4590	1.3925e-12	3.6758e-14
9317.7090	1.5241e-12	3.6450e-14
9318.9590	1.5023e-12	4.3692e-14
9320.2090	1.4911e-12	3.5770e-14
9321.4590	1.4783e-12	1.5614e-14
9322.7090	1.4186e-12	1.7123e-14
9323.9590	1.4002e-12	2.2185e-14
9325.2090	1.4189e-12	2.6476e-14
9326.4590	1.5161e-12	3.4560e-14
9327.7090	1.4931e-12	2.9025e-14
9328.9590	1.4841e-12	3.2734e-14
9330.2090	1.4717e-12	1.5556e-14
9331.4590	1.4414e-12	1.7562e-14
9332.7090	1.4156e-12	1.9286e-14
9333.9590	1.4110e-12	4.9497e-14
9335.2090	1.4715e-12	2.3393e-14
9336.4590	1.4788e-12	4.5491e-14
9337.7090	1.4363e-12	2.0417e-14
9338.9590	1.4085e-12	1.0705e-14
9340.2090	1.4763e-12	1.8692e-14
9341.4590	1.4381e-12	4.1513e-14
9342.7090	1.3383e-12	9.8965e-14
9343.9590	1.3369e-12	1.4350e-14
9345.2090	1.4831e-12	1.0764e-13
9346.4590	1.5708e-12	7.6443e-14
9347.7090	1.4978e-12	4.7728e-14
9348.9590	1.4366e-12	2.5500e-14
9350.2090	1.4216e-12	1.0384e-14
9351.4590	7.1100e-14	4.6969e-14
